#Acq. time (s)=	0.5
#Accumulations=	60
#Range (cm-¹)=	100...4000
#Windows=	1
#Auto scanning=	Off
#Autofocus=	Off
#Macrospot=	Off
#AutoExposure=	Off
#Spike filter=	Multiple accum.
#Delay time (s)=	2
#Binning=	1
#Readout mode=	Signal
#DeNoise=	Off
#ICS correction=	On
#Dark correction=	Off
#Inst. Process=	Off
#Detector Gain=	Best Dynamic
#Detector ADC=	50 kHz HS
#Detector temperature (°C)=	-60.09
#Instrument=	LabRAM HR Evol
#Detector=	SIN-EM FIVIS
#Objective=	x100_VIS_LWD
#Grating=	150 (500nm)
#ND Filter=	100%
#Laser=	633nm_Edge
#Hole=	100.021
#Temperature=	0
#Range=	Visible
#StageXY=	75x50mm Scan+
#StageZ=	Z motor
#X (µm)=	0
#Y (µm)=	0
#Z (µm)=	14.3
#Full time(s)=	43
#Project=	21_11_22
#Sample=	BU04w
#Site=	
#Title=	BU04w-A-FF3-V_150 (500nm)_633nm_Edge_100%_x100_VIS_LWD_H100um_0_5sX60
#Remark=	
#Date=	22.11.2021 10:36
#Acquired=	22.11.2021 10:36:57
#Base:Fit=	16.12.2021 16:15:35
#Base:Fit=	16.12.2021 16:21:14
#Base:Edit=	16.12.2021 16:21:16
#Base:Edit=	16.12.2021 16:21:18
#Base:Sub=	16.12.2021 16:21:21
100.177	4.62372
103.438	4.08033
106.695	3.25994
109.954	3.56834
113.209	2.91718
116.464	2.26068
119.717	2.50296
122.969	1.77144
126.219	1.42186
129.469	1.78329
132.716	1.53738
135.963	1.18999
139.208	1.32212
142.452	1.46847
145.694	1.1106
148.936	1.29985
152.175	1.26078
155.414	0.182144
158.651	1.35558
161.887	1.84582
165.121	1.56959
168.353	2.03572
171.586	1.81509
174.815	1.05281
178.045	-0.137449
181.272	-0.226774
184.5	-0.306852
187.724	-0.812101
190.947	-1.06289
194.17	-1.07147
197.39	-0.838194
200.611	-0.748667
203.829	-1.22012
207.045	-1.45393
210.262	-1.41552
213.475	-0.958864
216.688	-1.15016
219.9	-1.15028
223.11	-1.45999
226.32	-0.223632
229.527	-0.303091
232.733	0.651419
235.939	1.33052
239.142	1.4765
242.344	1.07354
245.546	0.885719
248.745	0.113444
251.943	-0.355327
255.141	-0.745616
258.336	-0.700993
261.53	-0.400106
264.723	-0.293174
267.916	-1.00656
271.106	-0.578918
274.294	-0.923633
277.483	-0.529662
280.669	-1.08686
283.854	-0.119634
287.038	-0.166778
290.221	0.0886793
293.402	-0.670053
296.582	-0.433805
299.76	-0.824241
302.938	-0.863213
306.114	-1.24028
309.288	-0.560161
312.461	-0.265503
315.634	0.156439
318.805	0.673344
321.974	2.04018
325.142	3.69401
328.309	5.02644
331.475	5.30478
334.639	5.10162
337.802	3.95442
340.963	2.05573
344.123	1.06728
347.282	0.635729
350.441	0.252582
353.597	0.201936
356.752	0.405426
359.906	0.0650549
363.058	-0.196278
366.209	0.24303
369.36	0.809092
372.509	0.848845
375.656	0.154906
378.802	0.337048
381.947	0.216135
385.09	-0.361749
388.232	-0.124254
391.373	-0.297266
394.512	-0.35671
397.652	0.286361
400.789	-0.275318
403.925	0.482106
407.059	-0.00457954
410.192	0.466172
413.324	0.438552
416.455	0.615035
419.584	-0.0229206
422.712	1.17607
425.839	1.48628
428.964	2.13489
432.089	2.28468
435.212	2.96064
438.333	2.86763
441.454	2.77475
444.573	2.04357
447.691	1.96416
450.807	1.66113
453.923	1.75703
457.037	1.44272
460.15	1.87561
463.261	1.25271
466.371	1.14021
469.48	0.758389
472.588	0.317116
475.695	0.51029
478.8	0.500104
481.904	0.282679
485.007	0.286123
488.108	0.368355
491.208	0.545725
494.307	0.344755
497.405	0.695199
500.502	0.55705
503.597	0.625764
506.691	1.51568
509.784	1.6319
512.874	1.79694
515.964	1.81982
519.053	1.25986
522.141	1.44648
525.227	1.38048
528.312	1.06237
531.396	1.38169
534.479	1.52856
537.559	0.878105
540.639	1.16398
543.718	0.457772
546.796	0.626615
549.873	0.757105
552.948	0.827147
556.022	0.606424
559.093	0.667273
562.165	0.113976
565.235	0.630856
568.304	0.00927544
571.372	0.661785
574.437	0.322631
577.503	0.554528
580.567	0.262922
583.63	0.35607
586.691	0.0221853
589.75	0.451091
592.81	0.473427
595.868	0.607014
598.924	0.44634
601.98	0.81397
605.033	1.21685
608.086	1.44656
611.138	0.982749
614.188	0.582403
617.236	0.805548
620.285	0.693875
623.332	0.600756
626.376	1.17902
629.42	0.870604
632.464	0.716537
635.506	1.00389
638.545	0.694311
641.585	0.620443
644.623	0.603801
647.659	0.145506
650.695	0.626031
653.73	0.861877
656.762	0.587107
659.794	0.630553
662.825	1.16464
665.854	0.733576
668.883	0.651186
671.91	0.73487
674.935	0.181758
677.96	0.209006
680.982	0.0466852
684.005	-0.126431
687.027	0.239676
690.045	-0.180713
693.064	0.224319
696.082	0.0113649
699.097	0.194555
702.113	-0.147562
705.126	-0.0933714
708.139	-0.152835
711.149	0.342194
714.16	0.298449
717.169	0.0999126
720.176	-0.212528
723.183	-0.0281677
726.187	0.277282
729.192	-0.024354
732.194	-0.0558167
735.196	0.0396528
738.196	-0.16656
741.196	0.150895
744.193	-0.148956
747.19	0.328522
750.185	-0.0162706
753.18	-0.324432
756.173	0.31359
759.165	0.359801
762.155	-0.585214
765.146	0.0556192
768.133	0.192824
771.121	-0.0511322
774.107	-0.0406485
777.092	-0.000674248
780.075	0.483117
783.058	0.31076
786.039	-0.295119
789.02	-0.0719748
791.998	-0.0102358
794.975	-0.0946674
797.952	-0.0854502
800.927	0.000285149
803.902	-0.107473
806.874	0.373712
809.845	-0.00735855
812.817	-0.0406637
815.786	-0.170885
818.755	0.540777
821.721	-0.291142
824.686	-0.0268068
827.652	0.125608
830.615	0.076004
833.576	-0.0446892
836.538	0.170151
839.498	-0.0692444
842.458	0.26791
845.415	-0.334852
848.37	-0.0146093
851.327	-0.0265112
854.28	0.0579367
857.233	-0.111646
860.184	0.23
863.135	0.124812
866.084	0.259458
869.032	0.522452
871.98	0.686365
874.925	0.62148
877.87	0.569585
880.813	0.516846
883.756	0.059845
886.697	0.533216
889.636	0.634574
892.576	0.171414
895.513	0.752087
898.45	-0.0218496
901.385	0.597259
904.318	0.316562
907.253	-0.155677
910.184	0.106859
913.114	0.512971
916.044	0.440244
918.973	0.485529
921.9	0.277935
924.826	0.553248
927.75	0.607677
930.674	0.79699
933.596	0.776481
936.519	1.03626
939.439	0.678108
942.357	1.77752
945.275	2.30333
948.192	2.88203
951.107	2.96249
954.023	3.21898
956.936	3.02125
959.848	3.15942
962.759	2.90678
965.669	2.98982
968.577	2.6345
971.485	2.46914
974.391	2.54424
977.296	3.10171
980.201	2.59492
983.104	3.24016
986.006	4.14231
988.907	5.2043
991.806	5.01503
994.704	5.31106
997.602	4.92851
1000.5	4.64548
1003.39	3.81487
1006.29	3.14993
1009.18	3.36117
1012.07	3.37081
1014.96	3.78495
1017.85	3.4865
1020.74	4.53337
1023.63	5.37685
1026.51	5.13904
1029.4	5.48636
1032.28	4.56665
1035.16	3.80975
1038.04	2.8724
1040.92	2.56898
1043.8	1.92057
1046.68	1.77938
1049.56	1.20615
1052.43	1.35244
1055.31	1.3165
1058.18	1.50818
1061.05	1.18631
1063.93	1.28943
1066.8	0.727672
1069.67	0.908646
1072.53	0.875141
1075.4	1.33379
1078.26	1.11598
1081.13	1.48937
1083.99	1.33666
1086.85	1.7753
1089.72	2.13448
1092.58	2.22953
1095.44	2.42361
1098.29	3.19027
1101.15	3.53103
1104	3.70989
1106.86	2.48765
1109.71	2.2091
1112.56	2.00682
1115.42	1.60089
1118.27	1.14507
1121.11	1.34283
1123.96	1.07583
1126.81	1.38621
1129.65	0.823005
1132.5	0.770935
1135.34	0.885454
1138.18	1.36425
1141.03	1.4635
1143.87	1.65894
1146.7	1.44997
1149.54	2.41076
1152.38	3.48439
1155.21	3.83636
1158.05	3.7665
1160.88	3.60932
1163.71	2.81066
1166.55	1.99846
1169.37	1.28734
1172.2	1.19182
1175.03	0.0169487
1177.86	0.916256
1180.68	0.557658
1183.51	0.317134
1186.33	0.281008
1189.15	0.445841
1191.98	-0.0837603
1194.8	0.336438
1197.61	0.259443
1200.43	0.237909
1203.25	0.220963
1206.06	0.720897
1208.88	-0.0755243
1211.69	0.393956
1214.51	0.165274
1217.32	0.423531
1220.13	0.128968
1222.94	0.525104
1225.74	-0.0575972
1228.55	0.406789
1231.36	0.106921
1234.16	0.60318
1236.97	0.0423756
1239.77	0.466843
1242.57	0.358089
1245.37	0.536937
1248.17	-0.00600529
1250.97	0.457092
1253.77	0.235785
1256.56	0.574011
1259.36	0.704058
1262.15	0.522304
1264.94	0.222002
1267.74	0.776361
1270.53	0.354794
1273.32	0.732985
1276.11	0.854679
1278.89	1.8255
1281.68	1.91127
1284.46	1.67635
1287.25	0.0696135
1290.03	0.365167
1292.81	0.492825
1295.59	0.0305748
1298.38	-0.142126
1301.15	0.685457
1303.93	0.230143
1306.71	0.591436
1309.48	-0.180044
1312.26	-0.455257
1315.03	-0.169106
1317.81	0.203955
1320.58	-0.155078
1323.35	0.273081
1326.12	0.138563
1328.88	0.295754
1331.65	-0.200637
1334.42	0.0399847
1337.18	-0.0991764
1339.95	0.590308
1342.71	0.584291
1345.47	0.0561447
1348.23	-0.161679
1350.99	0.158355
1353.75	0.129774
1356.51	0.342853
1359.26	0.432486
1362.02	0.363388
1364.77	0.32654
1367.53	0.374724
1370.28	0.509253
1373.03	1.28739
1375.78	0.707993
1378.53	1.12042
1381.28	2.12405
1384.03	4.57098
1386.77	2.99882
1389.52	1.0796
1392.26	0.624811
1395	0.554562
1397.74	-0.134394
1400.49	0.705904
1403.23	0.100839
1405.96	0.682265
1408.7	0.0781622
1411.44	0.15544
1414.17	-0.0285025
1416.91	0.383926
1419.64	0.393544
1422.37	0.12333
1425.11	0.187357
1427.84	-0.0833521
1430.56	-0.142321
1433.29	0.168324
1436.02	-0.0149946
1438.74	-0.181266
1441.47	0.0581217
1444.19	-0.319885
1446.92	0.00865364
1449.64	0.370383
1452.36	-0.177154
1455.08	0.376398
1457.8	-0.246807
1460.52	-0.462255
1463.23	0.22845
1465.95	0.11718
1468.66	0.307858
1471.38	-0.0882959
1474.09	-0.234707
1476.8	-0.0415878
1479.51	-0.487219
1482.22	0.0100613
1484.93	-0.363363
1487.64	-0.183628
1490.34	0.211657
1493.05	-0.300693
1495.75	-0.240661
1498.46	0.0516644
1501.16	-0.136501
1503.86	0.176576
1506.56	-0.279263
1509.26	-0.0343781
1511.96	-0.220177
1514.65	-0.314715
1517.35	-0.0302353
1520.05	0.418742
1522.74	0.0186319
1525.43	0.361939
1528.13	-0.057869
1530.82	0.122801
1533.51	-0.131517
1536.2	0.267566
1538.88	0.0239868
1541.57	0.384031
1544.25	0.190012
1546.94	0.301969
1549.62	0.281889
1552.31	0.441409
1554.99	0.247871
1557.67	0.144542
1560.35	-0.303477
1563.03	0.23678
1565.71	-0.0282993
1568.38	0.291332
1571.06	0.0443811
1573.73	0.418646
1576.41	0.15553
1579.08	0.170367
1581.75	0.0759449
1584.42	0.621211
1587.09	-0.16476
1589.76	0.364174
1592.43	-0.145923
1595.09	0.422904
1597.76	-0.0295944
1600.42	0.487148
1603.09	0.256448
1605.75	0.20963
1608.41	0.0188732
1611.07	0.601566
1613.73	0.34214
1616.39	0.839645
1619.05	-0.00876331
1621.7	0.0466766
1624.36	0.324631
1627.01	0.659142
1629.67	0.212635
1632.32	0.211197
1634.97	0.711099
1637.62	0.929098
1640.27	0.201063
1642.92	0.656139
1645.57	0.156409
1648.22	0.479756
1650.86	0.464523
1653.51	0.317199
1656.15	-0.0765648
1658.79	0.63659
1661.43	-0.0790987
1664.07	0.445419
1666.71	0.386085
1669.35	0.571035
1671.99	0.454943
1674.63	0.733586
1677.26	0.352359
1679.9	0.236034
1682.53	0.191212
1685.16	0.426579
1687.79	0.492864
1690.43	0.18503
1693.05	-0.195781
1695.68	0.58942
1698.31	0.290491
1700.94	0.279981
1703.56	-0.216757
1706.19	0.0311785
1708.81	0.0908279
1711.44	0.25837
1714.06	-0.217587
1716.68	0.205511
1719.3	-0.136015
1721.92	0.212151
1724.53	-0.372603
1727.15	0.167607
1729.77	0.252178
1732.38	-0.253193
1735	0.192832
1737.61	0.353058
1740.22	-0.746632
1742.83	0.139204
1745.44	0.127632
1748.05	0.248005
1750.66	-0.226696
1753.27	0.0639324
1755.87	-0.278972
1758.48	0.200315
1761.08	-0.20448
1763.69	0.619011
1766.29	0.0230675
1768.89	0.118621
1771.49	-0.207932
1774.09	-0.0348663
1776.69	-0.475197
1779.29	-0.106316
1781.88	0.28371
1784.48	-0.230528
1787.07	0.0652552
1789.66	-0.079792
1792.26	-0.0902481
1794.85	0.228724
1797.44	0.0841322
1800.03	-0.310827
1802.62	-0.377058
1805.21	0.0628757
1807.79	0.210072
1810.38	0.0629139
1812.96	-0.162657
1815.55	0.00205612
1818.13	0.128612
1820.71	0.175908
1823.29	0.0285778
1825.87	-0.11916
1828.45	-0.0705366
1831.03	0.431479
1833.61	0.0675402
1836.18	0.532958
1838.76	0.126775
1841.33	0.311753
1843.91	0.160177
1846.48	0.106853
1849.05	0.587544
1851.62	0.0782433
1854.19	0.000228882
1856.76	0.124716
1859.33	-0.0285053
1861.89	0.237677
1864.46	-0.29275
1867.02	0.0151873
1869.59	0.0019474
1872.15	0.286416
1874.71	0.230062
1877.27	0.194011
1879.83	0.296515
1882.39	0.379876
1884.95	0.0205927
1887.51	0.32272
1890.06	-0.0208254
1892.62	0.396101
1895.17	0.131435
1897.73	0.189054
1900.28	0.409506
1902.83	0.0336285
1905.38	-0.220363
1907.93	-0.012517
1910.48	0.0189419
1913.03	0.0732632
1915.57	-0.0923481
1918.12	0.345063
1920.66	0.140204
1923.21	-0.096756
1925.75	0.0722466
1928.29	0.322734
1930.83	0.167348
1933.37	0.0926285
1935.91	-0.39016
1938.45	-0.100865
1940.99	0.391486
1943.53	0.231143
1946.06	0.0287647
1948.6	0.274696
1951.13	0.0696716
1953.66	0.271907
1956.19	-0.016531
1958.73	0.143719
1961.26	-0.431822
1963.78	0.360576
1966.31	0.00846195
1968.84	0.266946
1971.36	-0.353771
1973.89	-0.137596
1976.41	-0.206902
1978.94	0.0297871
1981.46	-0.12154
1983.98	0.0333986
1986.5	0.10705
1989.02	0.486904
1991.54	-0.192851
1994.06	-0.158737
1996.58	-0.266663
1999.09	0.48212
2001.61	-0.0724354
2004.12	0.127932
2006.63	0.391111
2009.15	0.144862
2011.66	0.00212669
2014.17	-0.0189791
2016.68	-0.366422
2019.19	-0.491678
2021.69	-0.0846462
2024.2	-0.267691
2026.71	-0.654418
2029.21	0.269235
2031.72	-0.278794
2034.22	0.280706
2036.72	-0.185365
2039.22	0.293035
2041.72	-0.831309
2044.22	0.0392399
2046.72	-0.324224
2049.22	0.260842
2051.71	-0.082799
2054.21	0.104428
2056.71	0.380338
2059.2	0.0983715
2061.69	-0.495215
2064.18	0.155287
2066.68	0.0388603
2069.17	0.503303
2071.66	-0.301581
2074.14	0.226195
2076.63	-0.0596561
2079.12	0.217483
2081.6	-0.00731659
2084.09	0.5613
2086.57	-0.0640306
2089.06	-0.000153542
2091.54	-0.163623
2094.02	-0.0112352
2096.5	0.374905
2098.98	-0.0588703
2101.46	0.202094
2103.93	-0.104946
2106.41	-0.0742693
2108.89	0.126432
2111.36	-0.116306
2113.84	0.659541
2116.31	0.120657
2118.78	0.452437
2121.25	0.102965
2123.72	0.0933714
2126.19	0.318425
2128.66	0.457767
2131.13	-0.00349998
2133.59	0.284141
2136.06	0.0989361
2138.53	0.514854
2140.99	0.0482998
2143.45	0.227292
2145.92	-0.17745
2148.38	0.25801
2150.84	-0.258665
2153.3	0.628913
2155.76	0.153213
2158.21	0.715178
2160.67	-0.109529
2163.13	0.320336
2165.58	0.0556746
2168.04	0.049861
2170.49	-0.322999
2172.94	0.108296
2175.39	0.669791
2177.84	0.34106
2180.29	-0.121059
2182.74	0.371205
2185.19	-0.0936842
2187.64	0.268133
2190.08	0.088892
2192.53	0.0413561
2194.98	-0.657333
2197.42	0.340064
2199.86	-0.159591
2202.3	0.0809269
2204.74	0.018301
2207.18	0.174454
2209.62	-0.191156
2212.06	0.251216
2214.5	-0.135902
2216.93	0.199851
2219.37	-0.0109711
2221.81	0.194653
2224.24	-0.324222
2226.67	-0.206609
2229.11	-0.352982
2231.54	0.117651
2233.97	0.037468
2236.4	0.465436
2238.83	-0.212343
2241.25	0.105179
2243.68	-0.152904
2246.1	0.0328321
2248.53	-0.248376
2250.96	0.53866
2253.38	0.301112
2255.8	0.174794
2258.22	-0.241305
2260.64	0.236428
2263.06	0.0191002
2265.48	0.427815
2267.9	-0.421717
2270.32	0.276864
2272.73	-0.531861
2275.15	0.660435
2277.56	-0.0835114
2279.98	-0.0860682
2282.39	0.0446911
2284.8	0.512046
2287.21	-0.532392
2289.62	0.047368
2292.03	-0.32069
2294.44	0.0554152
2296.85	-0.0408325
2299.26	0.203703
2301.66	0.403653
2304.07	0.0864878
2306.47	-0.274045
2308.88	0.0676622
2311.28	-0.109146
2313.68	-0.172499
2316.08	0.287887
2318.48	0.0686245
2320.88	-0.516032
2323.28	0.857491
2325.68	-0.0685596
2328.07	0.145359
2330.47	0.0170393
2332.86	0.0274916
2335.26	-0.191471
2337.65	0.210127
2340.04	-0.331137
2342.43	-0.272921
2344.82	-0.375976
2347.21	0.472555
2349.6	-0.16331
2351.99	0.453605
2354.38	0.0466623
2356.76	-0.107944
2359.15	-0.0535307
2361.53	-0.192469
2363.92	-0.000900269
2366.3	-0.230186
2368.68	0.0786514
2371.06	-0.0111542
2373.44	0.273981
2375.82	0.747465
2378.2	-0.283323
2380.58	0.351759
2382.95	-0.308346
2385.33	0.559613
2387.71	-0.151313
2390.08	0.173202
2392.45	-0.306171
2394.83	0.346602
2397.2	0.0768251
2399.57	0.184699
2401.94	-0.108021
2404.31	0.0452127
2406.68	-0.461192
2409.04	0.145181
2411.41	-0.444838
2413.78	0.528437
2416.14	-0.187524
2418.51	0.388268
2420.87	-0.0961685
2423.23	0.0490713
2425.59	0.0450659
2427.95	-0.116023
2430.31	-0.277063
2432.67	0.112972
2435.03	-0.165349
2437.39	0.492608
2439.75	-0.290321
2442.1	-0.161141
2444.46	0.0889568
2446.81	0.146811
2449.16	-0.0126238
2451.52	0.335996
2453.87	-0.382484
2456.22	-0.592962
2458.57	0.0232954
2460.92	0.202381
2463.27	-0.227511
2465.61	-0.195387
2467.96	0.0319042
2470.3	-0.108313
2472.65	0.338865
2474.99	0.00190735
2477.34	0.0828867
2479.68	0.212799
2482.02	-0.0524206
2484.36	0.273192
2486.7	-0.464821
2489.04	0.230241
2491.38	-0.237353
2493.72	0.0375414
2496.05	-0.305925
2498.39	0.912754
2500.72	-0.0290461
2503.06	-0.201967
2505.39	0.271505
2507.72	0.0721264
2510.06	0.120912
2512.39	0.193764
2514.72	0.191064
2517.04	-0.0616798
2519.37	-0.312845
2521.7	0.712905
2524.03	-0.614506
2526.35	-0.290652
2528.68	-0.015872
2531	0.108444
2533.33	-0.0917673
2535.65	-0.191153
2537.97	-0.0132275
2540.29	0.215853
2542.61	-0.159838
2544.93	0.322412
2547.25	-0.203891
2549.57	0.279898
2551.88	0.461139
2554.2	0.642262
2556.51	0.161379
2558.83	0.0601225
2561.14	-0.0891285
2563.46	0.5251
2565.77	-0.15708
2568.08	-0.126523
2570.39	-0.299094
2572.7	0.167498
2575.01	0.301394
2577.31	0.383094
2579.62	-0.127498
2581.93	0.361983
2584.23	-0.232162
2586.54	-0.00369263
2588.84	0.274802
2591.15	0.265398
2593.45	0.158224
2595.75	0.284457
2598.05	-0.0250406
2600.35	-0.0791626
2602.65	-0.418553
2604.95	0.793137
2607.24	-0.453379
2609.54	0.241113
2611.84	-0.103569
2614.13	0.615211
2616.42	-0.299212
2618.72	0.577001
2621.01	-0.104482
2623.3	0.304993
2625.59	-0.531063
2627.88	-0.145889
2630.17	0.113493
2632.46	-0.118427
2634.75	0.146116
2637.04	-0.290125
2639.32	-0.0185976
2641.61	0.461626
2643.89	-0.734353
2646.18	0.169153
2648.46	-0.400855
2650.74	0.609199
2653.02	-0.330689
2655.3	0.119838
2657.58	-0.594547
2659.86	0.409956
2662.14	-0.333906
2664.42	-0.072896
2666.69	-0.369983
2668.97	0.133645
2671.24	0.159839
2673.52	0.48421
2675.79	-0.225043
2678.06	-0.126485
2680.33	0.0594616
2682.61	-0.296883
2684.88	-0.224275
2687.15	0.334155
2689.41	-0.133004
2691.68	-0.146477
2693.95	0.328108
2696.22	0.755587
2698.48	-0.273587
2700.74	0.0823307
2703.01	-0.243043
2705.27	0.492638
2707.53	0.220325
2709.8	0.683503
2712.06	0.0266914
2714.32	0.0539131
2716.57	-0.406809
2718.83	-0.490271
2721.09	0.0312033
2723.35	0.222194
2725.6	-0.221585
2727.86	-0.473761
2730.11	0.0975189
2732.37	0.44593
2734.62	-0.249343
2736.87	0.23693
2739.12	0.03409
2741.37	0.579939
2743.62	-0.335678
2745.87	0.460821
2748.12	0.0995884
2750.37	-0.563607
2752.61	0.0290527
2754.86	-0.327531
2757.1	0.172366
2759.35	0.531532
2761.59	-0.669171
2763.83	0.136074
2766.08	-0.309426
2768.32	0.388472
2770.56	-0.172095
2772.8	-0.33901
2775.04	0.0830708
2777.27	-0.0234261
2779.51	-0.466505
2781.75	0.218694
2783.98	0.144412
2786.22	0.663154
2788.45	0.335309
2790.68	0.260291
2792.92	-0.0707836
2795.15	-0.00641251
2797.38	-0.513274
2799.61	-0.139268
2801.84	-0.279128
2804.07	-0.0498762
2806.3	-0.335248
2808.52	0.492436
2810.75	-0.0804453
2812.98	-0.31153
2815.2	-0.45971
2817.42	-0.120414
2819.65	-0.640774
2821.87	0.446291
2824.09	-0.303164
2826.31	0.0678062
2828.53	-0.367459
2830.75	-0.141382
2832.97	0.0267897
2835.19	-0.0941277
2837.41	-0.0992117
2839.62	-0.219816
2841.84	-0.166974
2844.05	0.0600748
2846.27	-0.289364
2848.48	0.142866
2850.69	-0.263933
2852.9	0.0859089
2855.12	-0.17247
2857.33	0.121887
2859.54	-0.370957
2861.74	0.188223
2863.95	-0.623554
2866.16	0.408794
2868.37	-0.374347
2870.57	0.308417
2872.78	-0.0957098
2874.98	0.0593252
2877.18	0.333338
2879.39	-0.277559
2881.59	0.176527
2883.79	0.573843
2885.99	-0.215391
2888.19	0.598674
2890.39	-0.255252
2892.59	-0.186611
2894.78	-0.0581017
2896.98	0.0146732
2899.18	-0.242632
2901.37	0.219776
2903.57	-0.0734787
2905.76	0.174894
2907.95	-0.211231
2910.15	0.278419
2912.34	-0.417608
2914.53	0.0981007
2916.72	-0.0236301
2918.91	0.100079
2921.09	0.102552
2923.28	1.05018
2925.47	0.109985
2927.65	0.543877
2929.84	-0.0617676
2932.02	0.00607491
2934.21	0.0701752
2936.39	0.316952
2938.57	-0.207676
2940.75	0.312229
2942.94	-0.368095
2945.12	0.614491
2947.29	-0.411612
2949.47	0.631727
2951.65	-0.332279
2953.83	0.743654
2956	0.118113
2958.18	0.0179615
2960.36	0.197319
2962.53	1.18435
2964.7	-0.186703
2966.88	1.11421
2969.05	-0.350658
2971.22	0.0191154
2973.39	0.389881
2975.56	0.168653
2977.73	-0.896169
2979.9	0.412176
2982.06	-0.277147
2984.23	0.161793
2986.4	0.195017
2988.56	0.857651
2990.73	0.139175
2992.89	-0.107615
2995.05	-0.167109
2997.21	0.217632
2999.38	-0.565983
3001.54	0.803173
3003.7	-0.487785
3005.86	0.442736
3008.01	-0.948954
3010.17	0.04636
3012.33	-0.10866
3014.49	0.796154
3016.64	0.39101
3018.8	0.403118
3020.95	0.0931683
3023.1	0.488791
3025.26	0.172832
3027.41	0.854786
3029.56	-0.080616
3031.71	0.53553
3033.86	0.501831
3036.01	0.952831
3038.16	-0.482752
3040.31	0.493139
3042.45	-0.291145
3044.6	0.551144
3046.74	-0.0409451
3048.89	0.638884
3051.03	0.666075
3053.18	0.137266
3055.32	0.0673103
3057.46	0.783529
3059.6	-0.205093
3061.74	0.0516796
3063.88	-0.315273
3066.02	-0.0580006
3068.16	0.396851
3070.3	0.589037
3072.43	0.484877
3074.57	0.381273
3076.7	0.277687
3078.84	0.835215
3080.97	0.136086
3083.1	0.594803
3085.24	0.295763
3087.37	1.19143
3089.5	0.0651646
3091.63	1.16767
3093.76	0.27495
3095.89	0.316603
3098.02	-0.143808
3100.14	0.767561
3102.27	0.307613
3104.4	0.957256
3106.52	1.10533
3108.65	2.23297
3110.77	0.8983
3112.89	1.86277
3115.01	0.996038
3117.14	0.977552
3119.26	0.890474
3121.38	1.96699
3123.5	0.242117
3125.62	1.25499
3127.73	1.31115
3129.85	1.26593
3131.97	1.05002
3134.08	1.10896
3136.2	1.51498
3138.31	1.01687
3140.43	1.17689
3142.54	1.65052
3144.65	1.31859
3146.76	1.36975
3148.87	1.70201
3150.98	2.13698
3153.09	2.00423
3155.2	2.22432
3157.31	1.84231
3159.42	2.66401
3161.52	1.89185
3163.63	1.93488
3165.73	2.04638
3167.84	1.30182
3169.94	2.51593
3172.05	2.27544
3174.15	1.52687
3176.25	2.16819
3178.35	2.44995
3180.45	2.33545
3182.55	1.60887
3184.65	2.67625
3186.75	2.55806
3188.84	2.86555
3190.94	1.63485
3193.04	2.9247
3195.13	2.12723
3197.23	2.92142
3199.32	2.35125
3201.41	2.91092
3203.51	2.38064
3205.6	2.35967
3207.69	1.61475
3209.78	2.50733
3211.87	1.83276
3213.96	2.62211
3216.05	2.7932
3218.13	3.14633
3220.22	2.61312
3222.31	2.07865
3224.39	3.46609
3226.48	2.63529
3228.56	2.72861
3230.64	2.93228
3232.73	3.54914
3234.81	2.59238
3236.89	3.35502
3238.97	3.14855
3241.05	2.15539
3243.13	3.0787
3245.21	1.71029
3247.29	2.74554
3249.36	2.04377
3251.44	3.94637
3253.52	2.62546
3255.59	2.24519
3257.66	2.39773
3259.74	2.75339
3261.81	2.15403
3263.88	3.27876
3265.95	2.80326
3268.03	2.69828
3270.1	2.04635
3272.17	3.16309
3274.23	2.74479
3276.3	2.85557
3278.37	3.04928
3280.44	2.8144
3282.5	3.31766
3284.57	2.73307
3286.63	1.95238
3288.7	2.22153
3290.76	2.56855
3292.82	2.99313
3294.88	2.67559
3296.94	2.4354
3299	2.93986
3301.06	3.02011
3303.12	1.99641
3305.18	2.77868
3307.24	2.894
3309.3	2.33987
3311.35	2.29524
3313.41	3.35216
3315.46	2.00938
3317.52	3.70083
3319.57	3.10824
3321.63	3.02893
3323.68	2.39972
3325.73	2.91757
3327.78	2.05078
3329.83	2.57195
3331.88	2.26891
3333.93	2.72474
3335.98	3.49945
3338.02	3.39681
3340.07	2.44013
3342.12	3.84702
3344.16	2.5604
3346.21	3.64505
3348.25	2.50952
3350.3	2.22511
3352.34	2.46164
3354.38	2.25401
3356.42	2.45745
3358.46	3.87428
3360.5	1.97274
3362.54	3.31255
3364.58	2.4198
3366.62	2.86559
3368.66	2.49956
3370.69	3.31429
3372.73	2.49663
3374.76	3.34824
3376.8	3.13713
3378.83	3.04734
3380.87	2.58919
3382.9	2.98869
3384.93	3.01981
3386.96	2.96841
3388.99	2.50635
3391.02	2.73937
3393.05	3.17822
3395.08	2.51222
3397.11	2.87466
3399.14	1.83994
3401.16	2.52923
3403.19	2.927
3405.21	3.11886
3407.24	3.76542
3409.26	3.21647
3411.29	2.37504
3413.31	3.43216
3415.33	2.09627
3417.35	2.94825
3419.37	2.85007
3421.39	2.66848
3423.41	2.2795
3425.43	2.42888
3427.45	3.53286
3429.46	2.8599
3431.48	3.30602
3433.5	2.42798
3435.51	2.83644
3437.53	2.5002
3439.54	3.20365
3441.55	2.91048
3443.57	2.32774
3445.58	2.08125
3447.59	3.33979
3449.6	2.21861
3451.61	2.05697
3453.62	2.31768
3455.63	2.79177
3457.64	2.55725
3459.64	2.70181
3461.65	2.17282
3463.66	2.78287
3465.66	2.21028
3467.67	2.82273
3469.67	1.4817
3471.67	3.32561
3473.68	2.09429
3475.68	2.961
3477.68	3.14627
3479.68	2.17709
3481.68	1.97551
3483.68	2.84509
3485.68	2.08398
3487.68	3.08398
3489.67	2.36265
3491.67	2.67482
3493.67	2.33838
3495.66	2.25745
3497.66	2.56488
3499.65	2.35115
3501.64	2.00493
3503.64	1.39385
3505.63	1.7821
3507.62	2.47034
3509.61	1.93637
3511.6	1.87788
3513.59	1.90649
3515.58	2.37021
3517.57	2.65944
3519.56	1.77261
3521.54	1.84375
3523.53	1.65408
3525.52	2.07701
3527.5	2.06467
3529.49	0.999115
3531.47	1.33944
3533.45	1.16252
3535.43	0.900953
3537.42	0.993324
3539.4	1.08898
3541.38	1.00382
3543.36	1.70712
3545.34	1.39838
3547.32	0.603836
3549.29	2.05166
3551.27	1.47026
3553.25	0.831123
3555.22	0.951073
3557.2	0.500772
3559.17	2.21388
3561.15	1.14956
3563.12	1.80912
3565.09	0.305027
3567.07	1.36892
3569.04	0.71389
3571.01	0.849195
3572.98	0.853336
3574.95	0.993374
3576.92	0.64658
3578.88	0.702938
3580.85	1.07392
3582.82	0.330139
3584.79	1.33036
3586.75	0.539886
3588.72	0.599745
3590.68	0.794603
3592.64	0.539648
3594.61	0.554583
3596.57	0.660234
3598.53	1.17141
3600.49	0.503456
3602.45	0.741386
3604.41	0.979204
3606.37	-0.329939
3608.33	0.176567
3610.29	0.955503
3612.25	0.550991
3614.2	1.01542
3616.16	-0.625656
3618.12	1.16168
3620.07	0.568268
3622.02	0.975401
3623.98	0.461807
3625.93	0.221895
3627.88	-1.25531
3629.84	1.34563
3631.79	-0.50362
3633.74	0.217119
3635.69	0.344738
3637.64	0.0171947
3639.58	0.52038
3641.53	-0.670856
3643.48	0.760714
3645.43	0.445417
3647.37	-0.233332
3649.32	1.13437
3651.26	-0.529938
3653.21	-0.164028
3655.15	-0.170509
3657.09	0.932823
3659.03	-0.367785
3660.98	0.827961
3662.92	-0.105898
3664.86	0.767456
3666.8	-0.903313
3668.74	0.529497
3670.67	-1.42238
3672.61	-0.314137
3674.55	-1.00915
3676.49	-0.030653
3678.42	-0.39583
3680.36	-0.433481
3682.29	-0.514791
3684.23	0.479786
3686.16	-0.996025
3688.09	-0.18338
3690.02	-1.57016
3691.96	0.277679
3693.89	-0.598183
3695.82	-0.255781
3697.75	-0.896315
3699.68	-0.17226
3701.61	-1.09796
3703.53	0.0497589
3705.46	0.306757
3707.39	-0.00460243
3709.31	-0.507154
3711.24	-0.0606461
3713.16	-1.04139
3715.09	-0.312136
3717.01	-0.394306
3718.93	0.095211
3720.86	-0.850006
3722.78	0.116749
3724.7	-0.545383
3726.62	0.660368
3728.54	0.0451603
3730.46	-1.09937
3732.38	0.353317
3734.29	-0.598602
3736.21	-0.63666
3738.13	0.529778
3740.04	-0.47468
3741.96	-1.14417
3743.87	-0.895933
3745.79	0.125586
3747.7	-0.692486
3749.62	0.133905
3751.53	0.0866852
3753.44	-0.738079
3755.35	0.763391
3757.26	0.128859
3759.17	0.123835
3761.08	0.0691528
3762.99	-1.00522
3764.9	-0.235023
3766.81	-1.30994
3768.71	0.825138
3770.62	-1.26685
3772.52	-0.975801
3774.43	-1.26889
3776.33	-0.637075
3778.24	-0.0510864
3780.14	-0.047102
3782.04	-1.40661
3783.95	0.407307
3785.85	-0.609642
3787.75	-0.162821
3789.65	-0.157337
3791.55	0.387465
3793.45	-0.484583
3795.34	-0.129164
3797.24	-1.44035
3799.14	0.194422
3801.04	-1.0687
3802.93	0.177555
3804.83	0.195484
3806.72	0.165245
3808.62	0.233673
3810.51	0.152206
3812.4	-0.574957
3814.29	0.431023
3816.19	0.0491562
3818.08	0.411779
3819.97	-0.518555
3821.86	-0.655504
3823.75	-0.29608
3825.64	-0.73638
3827.52	-0.227789
3829.41	0.18321
3831.3	-0.801846
3833.18	-0.0881691
3835.07	-0.125376
3836.95	0.437176
3838.84	-0.70566
3840.72	0.562891
3842.61	-0.626169
3844.49	-0.619022
3846.37	0.540216
3848.25	-0.268141
3850.13	0.184124
3852.01	-0.572433
3853.89	-0.276163
3855.77	-0.228703
3857.65	0.568457
3859.53	-0.399933
3861.41	-0.305624
3863.28	-0.00743484
3865.16	-0.452026
3867.03	0.322395
3868.91	0.246078
3870.78	1.42457
3872.66	-0.91082
3874.53	-0.00233269
3876.4	-0.308699
3878.27	0.144363
3880.14	-0.77029
3882.01	0.342999
3883.89	0.291832
3885.75	0.850748
3887.62	-0.0609589
3889.49	0.957201
3891.36	0.046854
3893.23	0.308971
3895.09	-0.388027
3896.96	0.0280552
3898.82	0.546104
3900.69	-0.107847
3902.55	0.257776
3904.42	1.2855
3906.28	0.118084
3908.14	-0.236118
3910	-0.280134
3911.87	-0.987383
3913.73	-0.36367
3915.59	-0.301069
3917.45	-0.493385
3919.3	0.551174
3921.16	0.0558891
3923.02	0.17774
3924.88	-0.735121
3926.73	0.0546875
3928.59	0.327065
3930.45	0.858105
3932.3	-1.10272
3934.15	-0.164764
3936.01	-0.263792
3937.86	0.414661
3939.71	-0.669508
3941.56	0.536613
3943.42	-0.178875
3945.27	0.821198
3947.12	-0.212801
3948.97	-0.101116
3950.81	0.530281
3952.66	0.794743
3954.51	0.272003
3956.36	0.0628738
3958.2	-0.464708
3960.05	0.577192
3961.9	1.19989
3963.74	0.142498
3965.58	0.0268021
3967.43	0.328545
3969.27	0.206867
3971.11	0.454273
3972.96	-1.13691
3974.8	1.16044
3976.64	0.145838
3978.48	-0.239864
3980.32	0.107164
3982.16	1.03028
3984	0.429554
3985.83	0.355055
3987.67	-0.825165
3989.51	0.677237
3991.34	0.447657
3993.18	0.588482
3995.01	-0.531557
3996.85	1.08705
3998.68	-0.134947
