#Acq. time (s)=	30
#Accumulations=	2
#Range (cm-¹)=	1200...2400
#Windows=	4
#Auto scanning=	Off
#Autofocus=	Off
#Macrospot=	Off
#AutoExposure=	Off
#Spike filter=	Multiple accum.
#Delay time (s)=	2
#Binning=	1
#Readout mode=	Signal
#DeNoise=	Off
#ICS correction=	On
#Dark correction=	Off
#Inst. Process=	Off
#Detector Gain=	Best Dynamic
#Detector ADC=	50 kHz HS
#Detector temperature (°C)=	-60.09
#Instrument=	LabRAM HR Evol
#Detector=	SIN-EM FIVIS
#Objective=	x100_VIS
#Grating=	1800 (450-850nm)
#ND Filter=	100%
#Laser=	532nm_Edge
#Hole=	49.98
#Temperature=	0
#Range=	Visible
#StageXY=	75x50mm Scan+
#StageZ=	Z motor
#X (µm)=	0
#Y (µm)=	0
#Z (µm)=	-270.7
#Full time(mm:ss)=	4:20
#Project=	21_11_04
#Sample=	BU19w
#Site=	
#Title=	BU19w-E-FF11b-FI10-V_1800 (450-850nm)_532nm_Edge_100%_x100_VIS_H50um_30sX2
#Remark=	
#Date=	04.11.2021 17:12
#Acquired=	04.11.2021 17:12:18
#Base:Fit=	16.12.2021 17:39:50
#Base:Fit=	16.12.2021 17:48:30
#Base:Sub=	16.12.2021 17:48:31
1200.19	3.17387
1200.46	-0.138493
1200.74	3.00501
1201.02	1.83471
1201.3	4.97059
1201.57	-1.56513
1201.85	-1.63865
1202.13	3.68572
1202.41	3.66165
1202.69	0.337761
1202.96	3.4872
1203.24	4.46453
1203.52	0.0896854
1203.8	-4.29181
1204.08	4.24845
1204.35	-1.19787
1204.63	3.02734
1204.91	2.94825
1205.19	0.722454
1205.47	3.86406
1205.74	-0.505974
1206.02	1.56258
1206.3	0.414118
1206.58	3.55296
1206.85	0.267067
1207.13	0.19799
1207.41	-2.01116
1207.69	2.20468
1207.97	-0.00347519
1208.24	-3.28125
1208.52	-2.27783
1208.8	-0.204266
1209.08	0.803438
1209.36	3.95001
1209.63	3.88765
1209.91	0.615549
1210.19	0.547174
1210.46	-1.6548
1210.74	0.415739
1211.02	-1.78338
1211.3	0.286806
1211.57	-0.844666
1211.85	1.22432
1212.13	-0.968822
1212.41	0.0356827
1212.69	1.04096
1212.96	-3.27572
1213.24	4.12115
1213.52	0.872515
1213.79	-2.37169
1214.07	-1.35737
1214.35	-1.40778
1214.63	1.73557
1214.9	0.620186
1215.18	-1.55948
1215.46	-1.61231
1215.74	0.460402
1216.01	-0.661318
1216.29	1.40707
1216.57	1.35046
1216.85	-1.89154
1217.12	-0.882494
1217.4	-0.934706
1217.68	1.13771
1217.95	1.08672
1218.23	-0.0235786
1218.51	-2.19212
1218.79	-0.115606
1219.06	-0.16111
1219.34	-3.39087
1219.62	2.92817
1219.89	-1.35625
1220.17	0.722639
1220.45	-3.56219
1220.73	1.6954
1221	1.6504
1221.28	1.60421
1221.56	0.49556
1221.84	0.445063
1222.11	-2.78274
1222.39	-0.716986
1222.67	0.291393
1222.94	0.240643
1223.22	2.30789
1223.5	1.20342
1223.77	1.15817
1224.05	1.11655
1224.33	0.0195885
1224.61	-1.0736
1224.88	1.00262
1225.16	3.08431
1225.44	1.99719
1225.71	-0.14649
1225.99	2.9854
1226.27	4.00457
1226.54	0.799133
1226.82	6.03463
1227.1	3.87037
1227.37	-1.45577
1227.65	0.60375
1227.93	-0.499691
1228.21	3.65102
1228.48	-0.597698
1228.76	3.60468
1229.03	2.59411
1229.31	3.64594
1229.59	0.424604
1229.86	2.48288
1230.14	3.50339
1230.42	4.52422
1230.69	0.248409
1230.97	1.24332
1231.25	4.37135
1231.52	0.140574
1231.8	3.264
1232.08	2.18482
1232.35	0.0566139
1232.63	0.028759
1232.91	3.15286
1233.18	2.07769
1233.46	1.00461
1233.74	3.08413
1234.01	0.962151
1234.29	3.04523
1234.57	1.97445
1234.84	1.95368
1235.12	0.882843
1235.4	1.91488
1235.67	6.09973
1235.95	1.86984
1236.23	-1.30976
1236.5	1.81748
1236.78	4.9401
1237.06	-2.44503
1237.33	0.675123
1237.61	-0.404894
1237.88	-2.53375
1238.16	0.584309
1238.44	0.558363
1238.71	-1.56241
1238.99	1.56032
1239.27	0.490662
1239.54	0.47076
1239.82	-0.596312
1240.1	-0.613985
1240.37	-0.630484
1240.65	-2.74282
1240.92	-0.662985
1241.2	0.363461
1241.48	2.43786
1241.75	-1.77232
1242.03	0.309631
1242.3	0.294739
1242.58	-3.90731
1242.86	-0.776453
1243.13	-1.84138
1243.41	0.241789
1243.68	0.229118
1243.96	1.26098
1244.24	-1.89977
1244.51	0.179249
1244.79	4.34891
1245.06	-3.0056
1245.34	0.112112
1245.62	7.41908
1245.89	-3.06395
1246.17	-5.17179
1246.44	0.0504742
1246.72	-4.14999
1247	1.06894
1247.27	1.05693
1247.55	4.17881
1247.82	4.15452
1248.1	1.00271
1248.38	2.03741
1248.65	-4.24623
1248.93	2.02017
1249.2	2.00733
1249.48	-2.1864
1249.75	-2.1973
1250.03	4.05961
1250.31	0.906097
1250.58	-2.24459
1250.86	-2.25848
1251.13	0.862299
1251.41	0.848499
1251.69	-5.43135
1251.96	-0.22319
1252.24	0.807262
1252.51	-1.29409
1252.79	7.04248
1253.06	-3.40198
1253.34	2.8539
1253.61	1.80871
1253.89	3.89596
1254.17	-1.3259
1254.44	4.93415
1254.72	8.06168
1254.99	-0.296808
1255.27	0.740883
1255.54	0.734844
1255.82	-0.313288
1256.09	5.951
1256.37	-2.40659
1256.65	-1.36684
1256.92	2.80338
1257.2	5.92788
1257.47	5.92048
1257.75	8.00163
1258.02	4.86219
1258.3	-2.4551
1258.57	2.7555
1258.85	-0.377781
1259.13	3.79626
1259.4	9.0261
1259.67	7.98125
1259.95	2.74954
1260.23	5.86765
1260.5	4.81078
1260.78	4.80108
1261.05	13.1385
1261.33	11.0702
1261.6	14.2426
1261.88	14.3085
1262.15	25.7715
1262.43	19.431
1262.7	23.5407
1262.98	31.9089
1263.25	31.9605
1263.53	26.7801
1263.8	24.753
1264.08	17.4142
1264.35	15.3015
1264.63	16.3411
1264.9	16.3426
1265.18	12.1524
1265.45	6.92461
1265.73	2.74618
1266	-2.47542
1266.28	5.8903
1266.55	4.85259
1266.83	5.90723
1267.1	2.78008
1267.38	3.83665
1267.66	5.94241
1267.93	3.8672
1268.2	7.01871
1268.48	5.97885
1268.75	2.84263
1269.03	0.751944
1269.31	0.748344
1269.58	8.0745
1269.85	3.87713
1270.13	4.91958
1270.4	1.77397
1270.68	3.86532
1270.95	8.05112
1271.23	4.91146
1271.5	5.96585
1271.78	1.79071
1272.05	8.08603
1272.33	7.05481
1272.6	7.06687
1272.88	-0.256187
1273.15	7.09287
1273.43	0.81448
1273.7	3.97142
1273.98	0.832268
1274.25	1.88533
1274.53	3.98625
1274.8	6.08966
1275.07	4.0003
1275.35	7.15798
1275.62	6.12007
1275.9	4.03278
1276.17	8.2431
1276.45	5.10387
1276.72	9.31605
1277	9.33023
1277.27	6.19213
1277.54	13.5622
1277.82	13.5755
1278.1	15.6937
1278.37	11.5024
1278.64	10.463
1278.92	9.41922
1279.19	10.4743
1279.47	13.6314
1279.74	18.8919
1280.02	25.209
1280.29	26.2707
1280.56	36.8054
1280.84	48.4061
1281.11	61.0622
1281.39	80.0198
1281.66	114.766
1281.94	167.431
1282.21	229.551
1282.49	330.533
1282.76	414.412
1283.03	522.362
1283.31	572.747
1283.58	533.755
1283.86	382.155
1284.13	234.018
1284.41	164.523
1284.68	98.1046
1284.95	66.4616
1285.23	50.6578
1285.5	35.9364
1285.78	24.3708
1286.05	19.104
1286.32	21.214
1286.6	18.062
1286.87	14.9071
1287.15	11.7497
1287.42	11.7511
1287.69	10.7043
1287.97	11.7654
1288.24	6.51278
1288.52	5.47241
1288.79	8.64465
1289.06	10.7655
1289.34	6.56915
1289.61	4.47878
1289.89	6.59875
1290.16	1.337
1290.43	6.60924
1290.71	4.51049
1290.98	4.51904
1291.26	0.31468
1291.53	-0.731113
1291.8	3.49231
1292.08	5.6101
1292.35	7.72069
1292.62	4.5694
1292.9	3.52888
1293.17	3.55314
1293.45	0.412338
1293.72	3.59821
1293.99	0.441921
1294.27	2.56161
1294.54	0.459055
1294.82	0.478636
1295.09	1.55731
1295.36	0.529116
1295.64	3.72984
1295.91	3.74767
1296.18	1.64471
1296.46	1.65469
1296.73	1.65989
1297.01	4.83437
1297.28	1.66803
1297.55	1.67101
1297.83	2.7315
1298.1	3.80271
1298.37	-0.416063
1298.65	3.81304
1298.92	-0.4037
1299.19	4.88084
1299.47	-0.384605
1299.74	1.74235
1300.02	3.8667
1300.29	2.82135
1300.56	-0.337116
1300.84	0.729134
1301.11	-0.313406
1301.38	0.758331
1301.65	3.9416
1301.93	-1.3272
1302.2	1.85299
1302.47	0.80654
1302.75	3.98372
1303.02	1.87813
1303.29	3.99711
1303.57	-0.215897
1303.84	-1.26039
1304.12	1.9185
1304.39	-0.183853
1304.66	-0.176702
1304.94	4.05118
1305.21	-0.166042
1305.48	-0.161283
1305.75	-1.2112
1306.03	0.905262
1306.3	5.13342
1306.57	-2.23649
1306.85	0.940811
1307.12	-0.102207
1307.39	0.963482
1307.67	2.03063
1307.94	-0.067524
1308.21	0.998251
1308.49	-2.15167
1308.76	4.19375
1309.03	4.21004
1309.31	-5.27169
1309.58	-3.14839
1309.85	-4.19329
1310.13	-1.01664
1310.4	2.16147
1310.67	4.28547
1310.94	1.13265
1311.22	2.20127
1311.49	-3.06086
1311.76	2.23405
1312.04	2.24934
1312.31	2.26272
1312.58	1.21515
1312.85	-2.99916
1313.13	1.23477
1313.4	-0.867231
1313.67	3.36549
1313.95	0.211622
1314.22	-1.88538
1314.49	2.3525
1314.76	-0.799314
1315.04	1.32815
1315.31	1.34409
1315.58	-2.86652
1315.86	-0.743519
1316.13	1.37934
1316.4	-0.721701
1316.67	-0.709927
1316.95	-1.75252
1317.22	-0.680599
1317.49	3.55926
1317.77	-0.652342
1318.04	-0.639187
1318.31	0.429974
1318.58	1.49856
1318.86	-1.65939
1319.13	1.52106
1319.4	-1.63567
1319.67	-1.62204
1319.95	-0.553598
1320.22	-2.65632
1320.49	-0.53595
1320.76	-1.58603
1321.04	-2.63698
1321.31	-1.57557
1321.58	0.541176
1321.85	1.60231
1322.13	-4.7175
1322.4	2.67381
1322.67	2.68073
1322.94	-1.5257
1323.22	-1.51105
1323.49	-0.443182
1323.76	-0.430883
1324.03	1.69043
1324.31	0.647942
1324.58	5.934
1324.85	1.72673
1325.12	-0.378649
1325.4	-1.43254
1325.67	1.72078
1325.94	0.66589
1326.21	-0.379889
1326.48	-0.365704
1326.76	3.87222
1327.03	-2.41892
1327.3	2.87008
1327.57	-0.26816
1327.85	2.91825
1328.12	1.88699
1328.39	-4.42283
1328.66	-2.30243
1328.93	-1.23385
1329.21	-1.22053
1329.48	3.01057
1329.75	-0.144444
1330.02	4.08304
1330.3	0.925846
1330.57	-0.12306
1330.84	1.98875
1331.11	-3.27848
1331.38	-3.27557
1331.66	4.09899
1331.93	-2.21171
1332.2	2.00141
1332.47	-0.0998363
1332.74	-1.14767
1333.01	3.06076
1333.29	-3.23961
1333.56	-5.33462
1333.83	-0.0771084
1334.1	2.0283
1334.37	2.03422
1334.65	-3.20597
1334.92	-0.0502663
1335.19	4.15359
1335.46	-2.13226
1335.73	-3.17238
1336.01	-1.06601
1336.28	1.03996
1336.55	4.19454
1336.82	4.20441
1337.09	0.0219574
1337.37	0.0310745
1337.64	1.08275
1337.91	2.13811
1338.18	1.09944
1338.45	0.0596943
1338.72	1.1177
1339	1.13002
1339.27	2.19152
1339.54	3.25263
1339.81	-4.06512
1340.08	2.2322
1340.35	0.150646
1340.63	-1.93242
1340.9	-2.96834
1341.17	0.183537
1341.44	2.28656
1341.71	5.43422
1341.98	2.29959
1342.26	1.25788
1342.53	-1.87423
1342.8	-0.818203
1343.07	2.33023
1343.34	2.34208
1343.61	2.3545
1343.88	-2.86181
1344.16	3.42509
1344.43	4.47949
1344.7	2.39511
1344.97	2.40021
1345.24	4.49348
1345.51	1.36385
1345.79	-1.76745
1346.06	2.40853
1346.33	2.41259
1346.6	3.45936
1346.87	1.37706
1347.14	-0.702559
1347.41	1.39054
1347.68	4.52665
1347.95	3.49426
1348.23	1.41938
1348.5	0.385057
1348.77	-2.73294
1349.04	2.48255
1349.31	0.406872
1349.58	-0.626814
1349.86	1.46282
1350.13	1.46936
1350.4	-1.64682
1350.67	1.4809
1350.94	0.4475
1351.21	5.65416
1351.48	-0.574463
1351.75	0.478394
1352.02	4.6547
1352.3	1.55374
1352.57	2.61261
1352.84	2.63693
1353.11	-1.49185
1353.38	1.65124
1353.65	-0.451181
1353.92	3.68452
1354.19	3.68046
1354.46	2.65703
1354.73	3.70543
1355.01	2.66646
1355.28	7.87338
1355.55	3.74515
1355.82	0.633198
1356.09	2.71925
1356.36	2.72854
1356.63	5.85381
1356.9	2.74687
1357.17	4.83134
1357.44	0.685659
1357.71	-0.345118
1357.99	2.77543
1358.26	-1.36773
1358.53	-0.324165
1358.8	4.86942
1359.07	0.728981
1359.34	3.84824
1359.61	-1.33287
1359.88	10.0717
1360.15	5.92935
1360.42	-2.35023
1360.69	2.83954
1360.96	3.88709
1361.23	2.86126
1361.5	1.83547
1361.78	2.87875
1362.05	9.10073
1362.32	2.89679
1362.59	4.97925
1362.86	3.95843
1363.13	3.97571
1363.4	10.205
1363.67	5.04099
1363.94	5.05055
1364.21	7.13132
1364.48	6.10298
1364.75	7.14356
1365.02	9.21794
1365.29	7.1513
1365.56	5.08605
1365.83	3.02159
1366.11	11.2998
1366.38	6.13025
1366.65	8.19914
1366.92	7.17343
1367.19	9.25031
1367.46	5.13247
1367.73	13.415
1368	8.25997
1368.27	19.6451
1368.54	34.1336
1368.81	26.912
1369.08	21.754
1369.35	12.4544
1369.62	11.4277
1369.89	4.19823
1370.16	2.13601
1370.43	8.34251
1370.7	10.4123
1370.97	6.28213
1371.24	5.24976
1371.51	8.34457
1371.78	7.31182
1372.05	11.4373
1372.32	10.4091
1372.59	4.22988
1372.86	9.39036
1373.13	8.36679
1373.4	9.40501
1373.67	11.4739
1373.94	7.3612
1374.21	8.4001
1374.48	15.6185
1374.75	7.38645
1375.02	14.6108
1375.29	11.5335
1375.56	9.4845
1375.83	11.5533
1376.1	13.6149
1376.37	12.5855
1376.64	6.40642
1376.91	14.6431
1377.18	14.6607
1377.45	11.5951
1377.72	11.6215
1377.99	15.774
1378.26	15.8008
1378.53	16.846
1378.8	15.8225
1379.07	12.7354
1379.34	15.8319
1379.61	15.8317
1379.88	19.9355
1380.15	10.6559
1380.42	11.6776
1380.69	19.913
1380.96	26.094
1381.23	16.8338
1381.5	21.9621
1381.77	25.0321
1382.04	21.9433
1382.31	23.9881
1382.58	31.165
1382.85	32.1839
1383.12	32.1813
1383.39	41.4084
1383.66	37.3141
1383.93	40.4029
1384.2	53.7522
1384.47	64.0333
1384.74	79.4661
1385.01	105.167
1385.28	156.543
1385.55	213.049
1385.82	336.339
1386.09	547.99
1386.36	910.631
1386.62	1269.03
1386.89	1247.64
1387.16	809.195
1387.43	452.227
1387.7	241.76
1387.97	154.119
1388.24	108.236
1388.51	72.473
1388.78	48.8865
1389.05	33.5102
1389.32	34.5437
1389.59	27.3405
1389.86	24.2249
1390.13	30.3977
1390.4	20.1327
1390.67	18.082
1390.94	10.9168
1391.21	13.995
1391.47	17.0685
1391.74	18.0919
1392.01	17.0693
1392.28	12.9774
1392.55	17.0772
1392.82	10.941
1393.09	11.9707
1393.36	16.0709
1393.63	10.9608
1393.9	17.1078
1394.17	10.9757
1394.44	15.0772
1394.71	12.0242
1394.97	8.96838
1395.24	8.98155
1395.51	11.0389
1395.78	6.95202
1396.05	6.95847
1396.32	10.0341
1396.59	11.0625
1396.86	9.01847
1397.13	11.0686
1397.4	10.053
1397.66	5.97176
1397.93	10.0755
1398.2	12.1346
1398.47	12.1463
1398.74	6.01962
1399.01	10.1271
1399.28	10.14
1399.55	13.2219
1399.82	9.13835
1400.09	13.2488
1400.35	6.09797
1400.62	7.13313
1400.89	8.16683
1401.16	10.2269
1401.43	10.2401
1401.7	8.21421
1401.97	4.14105
1402.24	10.3208
1402.5	6.23842
1402.77	6.25538
1403.04	10.3741
1403.31	7.30124
1403.58	9.35172
1403.85	12.4291
1404.12	11.4143
1404.39	8.34215
1404.65	12.4497
1404.92	12.4522
1405.19	9.37838
1405.46	11.4321
1405.73	13.4863
1406	16.5665
1406.27	15.5492
1406.54	24.7855
1406.8	30.9489
1407.07	34.0374
1407.34	41.2265
1407.61	47.391
1407.88	56.6323
1408.15	64.8498
1408.42	66.9172
1408.68	52.5755
1408.95	43.3594
1409.22	31.0636
1409.49	26.9718
1409.76	18.7706
1410.03	14.6676
1410.29	13.6397
1410.56	10.5632
1410.83	8.51526
1411.1	8.51876
1411.37	7.49949
1411.64	8.53369
1411.9	4.44946
1412.17	7.54327
1412.44	7.58074
1412.71	5.56868
1412.98	7.63506
1413.25	7.60371
1413.51	2.46592
1413.78	4.53734
1414.05	5.59129
1414.32	6.63155
1414.59	1.50653
1414.86	9.72879
1415.12	9.73742
1415.39	-0.519695
1415.66	5.6516
1415.93	2.58197
1416.2	5.67395
1416.47	2.60413
1416.73	5.69734
1417	6.73665
1417.27	3.66509
1417.54	4.70198
1417.81	4.71069
1418.07	6.77623
1418.34	2.67397
1418.61	0.628042
1418.88	0.635443
1419.15	2.69531
1419.41	2.69818
1419.68	4.75578
1419.95	6.81255
1420.22	3.73393
1420.49	2.70979
1420.75	2.71357
1421.02	4.77343
1421.29	6.8376
1421.56	2.74939
1421.83	6.87266
1422.09	8.94893
1422.36	4.86285
1422.63	4.90071
1422.9	2.86765
1423.17	5.83211
1423.43	4.82705
1423.7	3.79348
1423.97	6.84732
1424.24	7.90145
1424.5	3.80463
1424.77	0.772436
1425.04	5.88413
1425.31	3.8583
1425.58	4.89248
1425.84	1.82095
1426.11	0.796967
1426.38	3.8746
1426.65	2.84957
1426.91	0.800295
1427.18	2.84507
1427.45	1.82283
1427.72	1.82736
1427.98	1.83432
1428.25	0.819061
1428.52	1.85236
1428.79	5.95861
1429.06	0.848928
1429.32	0.860617
1429.59	2.92331
1429.86	2.93816
1430.12	1.92519
1430.39	-0.108879
1430.66	0.935472
1430.93	1.97588
1431.2	3.01261
1431.46	1.99223
1431.73	-0.0585346
1432	1.9955
1432.26	0.973961
1432.53	0.972263
1432.8	0.970695
1433.07	4.04125
1433.33	-0.0577583
1433.6	3.01745
1433.87	-0.0471001
1434.14	2.02307
1434.4	8.17997
1434.67	5.11418
1434.94	2.04716
1435.21	5.1278
1435.47	2.05969
1435.74	2.06534
1436.01	3.0953
1436.28	3.10005
1436.54	1.05618
1436.81	1.06168
1437.08	7.21358
1437.34	3.12082
1437.61	0.0552959
1437.88	2.11318
1438.15	-0.94936
1438.41	5.20601
1438.68	3.16528
1438.95	3.17472
1439.21	1.13701
1439.48	4.22511
1439.75	2.18789
1440.01	2.19751
1440.28	-0.870605
1440.55	3.23905
1440.82	1.19537
1441.08	-1.87635
1441.35	1.20352
1441.62	4.28686
1441.88	-0.829515
1442.15	2.25606
1442.42	0.213882
1442.69	0.21755
1442.95	2.27143
1443.22	2.27521
1443.49	1.25507
1443.75	1.26185
1444.02	3.32282
1444.29	-0.76544
1444.55	2.32523
1444.82	1.31017
1445.09	1.31492
1445.35	4.39717
1445.62	0.298649
1445.89	2.355
1446.15	0.308659
1446.42	0.313713
1446.69	5.44585
1446.95	6.47487
1447.22	0.326723
1447.49	2.38218
1447.76	-0.685261
1448.02	0.351391
1448.29	-0.66382
1448.56	-0.656324
1448.82	1.40074
1449.09	3.45606
1449.35	2.43364
1449.62	-1.66486
1449.89	1.41435
1450.15	0.393991
1450.42	0.3988
1450.69	0.403555
1450.96	0.408066
1451.22	0.412336
1451.49	5.53981
1451.75	-3.67631
1452.02	2.47697
1452.29	1.45955
1452.55	-0.581327
1452.82	-2.62184
1453.09	0.46044
1453.35	2.51591
1453.62	-0.553541
1453.89	-1.57246
1454.15	2.53292
1454.42	2.53926
1454.68	0.495079
1454.95	-2.5736
1455.22	-0.515646
1455.48	3.59356
1455.75	2.5765
1456.02	3.60716
1456.28	-0.488859
1456.55	0.538153
1456.82	0.541798
1457.08	-1.50238
1457.35	2.60017
1457.61	-4.56457
1457.88	0.563786
1458.15	-2.50228
1458.41	-0.445839
1458.68	0.585783
1458.95	3.66674
1459.21	-1.45002
1459.48	-0.420309
1459.74	-2.4645
1460.01	-2.45976
1460.28	-0.406658
1460.54	1.64529
1460.81	-1.4238
1461.08	-0.396404
1461.34	-0.393631
1461.61	-1.41483
1461.87	-2.4361
1462.14	0.635641
1462.41	2.68273
1462.67	-1.40805
1462.94	2.68317
1463.2	1.66234
1463.47	0.647787
1463.74	1.68699
1464	-0.343945
1464.27	-3.40122
1464.53	1.73647
1464.8	0.676205
1465.07	0.652197
1465.33	1.66398
1465.6	1.67576
1465.86	1.68705
1466.13	-6.47861
1466.39	-0.359356
1466.66	-3.41151
1466.93	2.7157
1467.19	2.71985
1467.46	-1.35623
1467.72	2.72935
1467.99	0.694803
1468.26	-1.33993
1468.52	-2.35557
1468.79	0.707672
1469.05	1.73038
1469.32	-1.32773
1469.58	-2.34586
1469.85	0.714005
1470.12	-4.37782
1470.38	4.79571
1470.65	0.725023
1470.91	-1.31089
1471.18	-1.30889
1471.44	-1.30539
1471.71	-1.30068
1471.97	-0.277317
1472.24	-1.29032
1472.51	-0.26704
1472.77	1.77275
1473.04	1.77447
1473.3	2.79481
1473.57	0.762377
1473.83	0.766996
1474.1	-1.26213
1474.36	0.781775
1474.63	-4.30088
1474.9	-3.2773
1475.16	-0.219213
1475.43	0.801702
1475.69	0.804068
1475.96	2.843
1476.22	0.811552
1476.49	-3.25584
1476.75	0.815147
1477.02	1.83661
1477.29	0.824608
1477.55	1.84648
1477.81	-1.202
1478.08	-4.25012
1478.34	-2.2142
1478.61	0.837191
1478.88	1.85487
1479.14	0.839848
1479.41	0.84053
1479.67	5.91747
1479.94	2.8683
1480.2	2.86751
1480.47	0.839705
1480.73	-2.20109
1481	1.8607
1481.26	-2.18944
1481.53	3.90803
1481.79	-3.18641
1482.06	2.9136
1482.32	-6.21586
1482.59	3.94336
1482.85	1.92063
1483.12	-0.103792
1483.38	3.9633
1483.65	-0.0966606
1483.92	-3.14559
1484.18	-4.16791
1484.44	2.90736
1484.71	0.863457
1484.97	1.86599
1485.24	-1.155
1485.5	0.909296
1485.77	2.9496
1486.03	-3.12959
1486.3	-1.10737
1486.56	-1.09398
1486.83	-0.0756187
1487.09	1.94985
1487.36	1.95055
1487.62	0.939739
1487.89	-0.071558
1488.15	3.9779
1488.42	-0.0706978
1488.68	0.943075
1488.95	-0.0657101
1489.21	-0.0621796
1489.48	-0.0578709
1489.74	-0.0527172
1490.01	-0.0485992
1490.27	-1.05805
1490.54	2.98809
1490.8	0.967218
1491.07	-0.0403042
1491.33	-4.07975
1491.6	-4.07417
1491.86	-3.05766
1492.12	0.99074
1492.39	-3.04893
1492.65	-3.04403
1492.92	2.01513
1493.18	3.02975
1493.45	0.00195694
1493.71	0.00782204
1493.98	-2.00717
1494.24	-3.01218
1494.51	1.03515
1494.77	0.0249138
1495.04	2.04381
1495.3	2.041
1495.56	0.0207233
1495.83	0.0222797
1496.09	-0.984838
1496.36	-0.982622
1496.62	1.03935
1496.89	-0.974171
1497.15	-0.969765
1497.42	-1.97482
1497.68	-0.960739
1497.94	1.06304
1498.21	0.0594845
1498.47	-0.943941
1498.74	2.0901
1499	1.08752
1499.27	-2.94332
1499.53	1.10127
1499.8	-1.92199
1500.06	-1.9174
1500.32	2.12527
1500.59	-1.90877
1500.85	-2.91632
1501.12	2.13214
1501.38	-0.891432
1501.64	0.122063
1501.91	1.13513
1502.17	-1.88992
1502.44	1.13673
1502.7	4.16434
1502.97	1.13974
1503.23	4.16691
1503.5	2.15654
1503.76	3.17167
1504.02	1.16057
1504.29	4.19067
1504.55	-2.86473
1504.81	-3.87026
1505.08	-0.84408
1505.34	-0.846935
1505.61	0.160971
1505.87	-0.842598
1506.13	-2.85321
1506.4	-0.830904
1506.66	-1.83187
1506.93	0.189316
1507.19	-0.812826
1507.46	2.2144
1507.72	3.22506
1507.98	1.21421
1508.25	-1.80302
1508.51	2.23305
1508.77	-0.78496
1509.04	0.227064
1509.3	2.24766
1509.57	0.240986
1509.83	0.244041
1510.09	-0.762558
1510.36	3.26739
1510.62	1.25214
1510.89	0.243237
1511.15	-1.77455
1511.41	-0.774488
1511.68	0.225618
1511.94	1.22433
1512.21	0.217098
1512.47	0.216585
1512.73	0.216665
1513	0.21771
1513.26	-2.7894
1513.52	-1.7731
1513.79	-0.758053
1514.05	1.25556
1514.31	2.26155
1514.58	-1.75662
1514.84	2.25904
1515.1	-1.75714
1515.37	1.25154
1515.63	1.24969
1515.9	1.25107
1516.16	2.25665
1516.42	-0.748564
1516.69	-0.744963
1516.95	-1.74307
1517.21	-1.73777
1517.48	2.28033
1517.74	1.28554
1518	0.288473
1518.27	-2.71448
1518.53	1.30393
1518.79	0.307322
1519.06	0.313505
1519.32	-0.684574
1519.58	0.322443
1519.85	0.325287
1520.11	0.329313
1520.37	-1.67086
1520.64	3.35228
1520.9	-1.65826
1521.16	2.3602
1521.43	-0.646538
1521.69	-1.64712
1521.95	-1.64469
1522.22	-1.64229
1522.48	-1.64005
1522.75	-0.636822
1523.01	2.36813
1523.27	0.360479
1523.53	-1.64371
1523.8	0.360209
1524.06	-0.640207
1524.32	0.36441
1524.59	1.37242
1524.85	1.37797
1525.11	-1.62045
1525.38	4.39751
1525.64	0.399824
1525.9	1.41185
1526.17	2.4224
1526.43	-2.5839
1526.69	-2.58054
1526.95	-0.57366
1527.22	2.43588
1527.48	0.434372
1527.74	1.43887
1528.01	-1.56473
1528.27	1.44312
1528.53	0.444242
1528.8	0.447977
1529.06	-0.549826
1529.32	3.45871
1529.58	1.45747
1529.85	-4.54636
1530.11	1.46947
1530.37	1.47859
1530.64	-0.516502
1530.9	-0.509813
1531.16	0.496485
1531.42	-2.50562
1531.69	2.50802
1531.95	0.507582
1532.21	-2.49056
1532.48	-0.475819
1532.74	-0.46423
1533	2.55428
1533.27	0.555412
1533.53	-0.442232
1533.79	0.564869
1534.05	1.57105
1534.32	1.57353
1534.58	1.5758
1534.84	0.57494
1535.1	-0.429735
1535.37	-1.43611
1535.63	3.57204
1535.89	0.565392
1536.15	1.56341
1536.42	-0.44194
1536.68	-0.442629
1536.94	3.55948
1537.2	0.560003
1537.47	1.56326
1537.73	2.56186
1537.99	-0.43821
1538.25	-1.4358
1538.52	0.568413
1538.78	0.580797
1539.04	1.5995
1539.31	-2.38669
1539.57	0.631519
1539.83	-0.356901
1540.09	-3.35255
1540.36	6.6843
1540.62	1.67191
1540.88	-1.33674
1541.14	1.67184
1541.41	1.67032
1541.67	1.66909
1541.93	2.66936
1542.19	0.665417
1542.45	2.66705
1542.72	0.664343
1542.98	1.66352
1543.24	1.65974
1543.5	-0.340132
1543.77	1.66517
1544.03	-1.32864
1544.29	1.68201
1544.55	-0.309484
1544.81	-1.29998
1545.08	2.71612
1545.34	0.721594
1545.6	3.73388
1545.86	0.733873
1546.13	1.73936
1546.39	3.74884
1546.65	4.75774
1546.91	-0.244551
1547.17	-1.24187
1547.44	0.75778
1547.7	0.755819
1547.96	2.76179
1548.22	0.76952
1548.49	-0.231573
1548.75	-1.24884
1549.01	3.73851
1549.27	1.74524
1549.53	2.76503
1549.79	3.8014
1550.06	3.83678
1550.32	-0.14436
1550.58	0.867384
1550.84	1.86902
1551.1	2.87766
1551.37	-0.137493
1551.63	1.87412
1551.89	2.89398
1552.15	2.90209
1552.41	-0.109034
1552.68	2.89492
1552.94	-0.122211
1553.2	1.886
1553.46	-0.118639
1553.72	-3.12763
1553.99	0.881454
1554.25	3.88389
1554.51	0.87616
1554.77	1.87981
1555.03	0.881172
1555.3	1.8875
1555.56	-0.110209
1555.82	4.90072
1556.08	2.89942
1556.34	0.901058
1556.6	-0.0951462
1556.87	-0.0899754
1557.13	1.9176
1557.39	-1.08517
1557.65	1.91811
1557.91	1.91633
1558.17	-0.0879326
1558.43	2.91118
1558.7	0.907881
1558.96	-0.0933571
1559.22	1.90626
1559.48	2.90633
1559.74	0.908356
1560	0.910446
1560.26	-0.0865021
1560.53	0.916029
1560.79	1.91959
1561.05	2.92567
1561.31	-0.064455
1561.57	0.946119
1561.83	0.954082
1562.1	3.95835
1562.36	-2.03964
1562.62	2.96416
1562.88	-3.03216
1563.14	-0.0300064
1563.4	1.97583
1563.66	1.98829
1563.93	0.99828
1564.19	2.00455
1564.45	2.00416
1564.71	2.98621
1564.97	0.947943
1565.23	-0.0910435
1565.49	1.92161
1565.76	2.99467
1566.02	2.0125
1566.28	-0.995348
1566.54	1.00436
1566.8	3.02747
1567.06	-0.958874
1567.32	2.03675
1567.58	6.03049
1567.84	0.0390949
1568.11	5.04517
1568.37	2.04991
1568.63	1.04961
1568.89	3.04557
1569.15	0.0484715
1569.41	1.05256
1569.67	4.05592
1569.93	2.06157
1570.19	3.06499
1570.45	4.0677
1570.72	0.0729275
1570.98	4.07143
1571.24	0.0749817
1571.5	0.0764923
1571.76	3.07575
1572.02	4.07481
1572.28	4.07443
1572.54	3.07647
1572.8	-1.91436
1573.07	5.07314
1573.33	1.08281
1573.59	-1.90586
1573.85	-1.89827
1574.11	2.1039
1574.37	1.1145
1574.63	1.12371
1574.89	2.1316
1575.15	5.13669
1575.41	2.14247
1575.67	-1.85195
1575.94	3.14746
1576.2	2.14793
1576.46	7.13791
1576.72	-0.855431
1576.98	1.13756
1577.24	6.1227
1577.5	5.12086
1577.76	1.12962
1578.02	2.12744
1578.28	1.13344
1578.54	6.12168
1578.8	6.1254
1579.06	4.13588
1579.32	0.153854
1579.58	1.15727
1579.85	2.15951
1580.11	-1.82552
1580.37	-1.82293
1580.63	2.16647
1580.89	7.15144
1581.15	3.16413
1581.41	-0.823116
1581.67	1.17026
1581.93	2.16879
1582.19	3.16711
1582.45	4.16534
1582.71	3.17186
1582.97	1.183
1583.23	3.17746
1583.49	2.18368
1583.75	2.18819
1584.01	2.19373
1584.27	2.1988
1584.53	5.19149
1584.79	5.19445
1585.06	1.21295
1585.32	-2.76827
1585.58	3.20813
1585.84	3.20621
1586.1	3.20474
1586.36	7.18565
1586.62	3.2055
1586.88	1.21683
1587.14	2.21389
1587.4	0.227028
1587.66	0.231421
1587.92	2.22701
1588.18	2.23357
1588.44	4.23089
1588.7	0.255941
1588.96	2.25309
1589.22	1.26283
1589.48	0.271152
1589.74	3.26232
1590	5.25965
1590.26	2.27874
1590.52	5.27103
1590.78	0.294863
1591.04	2.28963
1591.3	1.29587
1591.56	2.29217
1591.82	3.28531
1592.08	-0.698317
1592.34	0.296745
1592.6	2.28495
1592.86	2.28029
1593.12	2.27464
1593.38	-0.710373
1593.64	2.26899
1593.9	3.26383
1594.16	-1.69807
1594.42	4.26901
1594.68	2.28958
1594.94	3.29002
1595.2	1.30129
1595.46	2.29214
1595.72	-1.67747
1595.98	1.30577
1596.24	6.27585
1596.5	5.28742
1596.76	3.30614
1597.02	4.30541
1597.28	6.29712
1597.54	3.31908
1597.8	5.30654
1598.06	2.32526
1598.32	1.33006
1598.58	2.32153
1598.84	2.32108
1599.1	3.31315
1599.36	5.29696
1599.62	7.28025
1599.88	1.32837
1600.14	2.31907
1600.4	6.28188
1600.66	1.32208
1600.92	4.29059
1601.17	5.27703
1601.43	2.30392
1601.69	3.29288
1601.95	0.322546
1602.21	4.25065
1602.47	1.2818
1602.73	3.21453
1602.99	1.2748
1603.25	1.35262
1603.51	1.26313
1603.77	2.04882
1604.03	2.19706
1604.29	2.08127
1604.55	2.87858
1604.81	4.9121
1605.07	1.46271
1605.33	2.20926
1605.59	3.97518
1605.85	3.03313
1606.11	2.06636
1606.37	-0.196163
1606.63	2.95282
1606.88	2.12589
1607.14	3.10639
1607.4	3.69377
1607.66	2.01897
1607.92	2.15771
1608.18	2.91436
1608.44	3.6494
1608.7	4.4858
1608.96	0.974056
1609.22	0.566639
1609.48	3.29564
1609.74	3.77204
1610	0.1625
1610.26	2.02558
1610.51	5.62185
1610.77	1.3632
1611.03	1.43261
1611.29	-0.204653
1611.55	3.61811
1611.81	2.63915
1612.07	4.47918
1612.33	3.33212
1612.59	2.32174
1612.85	3.74825
1613.11	3.8958
1613.37	1.59719
1613.62	2.25345
1613.88	2.81624
1614.14	3.13519
1614.4	2.46786
1614.66	3.5015
1614.92	3.8025
1615.18	2.04355
1615.44	0.462393
1615.7	4.67599
1615.96	2.02899
1616.21	4.22042
1616.47	3.28657
1616.73	3.41339
1616.99	2.97974
1617.25	5.12247
1617.51	2.82402
1617.77	3.45674
1618.03	1.16269
1618.28	4.34848
1618.54	3.12148
1618.8	2.1644
1619.06	5.31543
1619.32	3.86372
1619.58	0.321796
1619.84	1.46347
1620.1	1.40312
1620.35	3.1774
1620.61	3.22342
1620.87	1.25306
1621.13	2.80245
1621.39	3.06103
1621.65	2.79849
1621.91	2.71217
1622.17	3.47996
1622.42	2.67091
1622.68	1.50186
1622.94	3.39167
1623.2	3.24993
1623.46	3.14698
1623.72	3.05674
1623.98	2.68136
1624.23	0.963703
1624.49	-0.1812
1624.75	0.256464
1625.01	2.19911
1625.27	3.03357
1625.53	3.08755
1625.79	3.62735
1626.04	3.32882
1626.3	1.5307
1626.56	1.23934
1626.82	1.56246
1627.08	2.35347
1627.34	1.24276
1627.59	0.68902
1627.85	0.965673
1628.11	1.95477
1628.37	2.88671
1628.63	1.97563
1628.81	-1.39693
1629.07	-0.410065
1629.33	5.50322
1629.59	2.54966
1629.85	-0.403879
1630.12	2.55316
1630.38	6.49288
1630.64	2.55644
1630.9	1.57635
1631.16	-1.37242
1631.42	0.604984
1631.68	1.59626
1631.95	6.52682
1632.21	6.53964
1632.47	3.59298
1632.73	1.61345
1632.99	3.57818
1633.25	4.56606
1633.51	-0.354443
1633.78	1.62249
1634.04	1.62648
1634.3	2.61559
1634.56	3.60386
1634.82	2.62024
1635.08	1.63626
1635.34	0.651957
1635.6	3.60894
1635.87	1.63859
1636.13	1.6389
1636.39	-1.31612
1636.65	1.63827
1636.91	1.63797
1637.17	4.59335
1637.43	3.61053
1637.69	1.64237
1637.95	2.62764
1638.21	-0.323359
1638.48	1.64856
1638.74	0.667166
1639	1.65434
1639.26	1.65719
1639.52	0.67532
1639.78	-0.30661
1640.04	2.65145
1640.3	-0.295303
1640.57	-0.290154
1640.83	0.697573
1641.09	1.68327
1641.35	0.699688
1641.61	-0.283167
1641.87	0.703278
1642.13	1.68966
1642.39	1.69176
1642.65	0.709616
1642.91	0.71232
1643.17	2.68278
1643.44	3.66783
1643.7	0.715874
1643.96	-2.23656
1644.22	2.68388
1644.48	3.66991
1644.74	2.69232
1645	2.69721
1645.26	3.68629
1645.52	4.67231
1645.78	3.68849
1646.04	0.737053
1646.31	1.72164
1646.57	2.70717
1646.83	0.739817
1647.09	0.740904
1647.35	2.7085
1647.61	-1.22187
1647.87	0.748632
1648.13	3.70693
1648.39	2.73061
1648.65	0.779032
1648.91	0.780506
1649.17	0.781858
1649.43	2.75038
1649.69	2.75457
1649.95	2.76637
1650.21	1.78772
1650.47	1.79506
1650.74	-0.1688
1651	1.80691
1651.26	0.824976
1651.52	-0.157818
1651.78	1.81601
1652.04	0.834412
1652.3	-0.151474
1652.56	2.80501
1652.82	2.80704
1653.08	0.839705
1653.34	2.81429
1653.6	4.79038
1653.86	2.82341
1654.12	-0.129509
1654.38	1.84606
1654.64	1.85196
1654.9	1.8596
1655.16	0.882738
1655.42	4.83928
1655.68	2.87332
1655.94	2.87911
1656.21	2.88349
1656.47	1.89969
1656.73	0.914274
1656.99	0.914976
1657.25	1.90249
1657.51	1.90376
1657.77	0.91786
1658.03	-1.05518
1658.29	3.87731
1658.55	3.87651
1658.81	-1.0554
1659.07	5.84698
1659.33	0.915768
1659.59	1.9015
1659.85	2.8921
1660.11	3.88382
1660.37	-2.02683
1660.63	2.91077
1660.89	-0.0418968
1661.15	1.9374
1661.41	0.955915
1661.67	-0.035284
1661.93	-0.0322628
1662.19	2.968
1662.45	6.93692
1662.71	2.9749
1662.97	2.97743
1663.23	0.980499
1663.49	1.95061
1663.75	3.9444
1664.01	3.95055
1664.27	0.996225
1664.53	4.96086
1664.79	0.0207634
1665.05	1.96564
1665.31	2.9698
1665.57	2.02307
1665.83	0.047884
1666.09	1.04251
1666.35	0.975756
1666.61	0.977251
1666.87	2.00039
1667.13	1.99814
1667.39	1.01131
1667.65	-0.962551
1667.91	3.97001
1668.17	1.01541
1668.43	2.01778
1668.69	1.04081
1668.95	4.00777
1669.21	1.04763
1669.47	2.03867
1669.72	-0.92597
1669.98	3.03124
1670.24	0.0820694
1670.51	4.04086
1670.76	1.07545
1671.02	1.07671
1671.28	2.06648
1671.54	0.09412
1671.8	1.08618
1672.06	4.05477
1672.32	1.09114
1672.58	5.04782
1672.84	1.0968
1673.1	4.06594
1673.36	1.10413
1673.62	-1.85754
1673.88	1.11421
1674.14	2.10796
1674.4	1.12411
1674.66	3.10967
1674.92	3.11485
1675.18	5.09819
1675.44	4.11064
1675.69	-0.835487
1675.95	-1.82183
1676.21	4.11975
1676.47	-0.826235
1676.73	1.155
1676.99	4.12492
1677.25	0.166584
1677.51	4.12342
1677.77	1.15322
1678.03	0.162039
1678.29	1.14987
1678.55	1.14949
1678.81	0.160782
1679.07	1.15002
1679.33	1.15006
1679.59	1.15031
1679.84	2.13924
1680.1	2.13916
1680.36	0.163212
1680.62	-0.824089
1680.88	1.15326
1681.14	2.14311
1681.4	-3.78228
1681.66	3.13534
1681.92	3.13783
1682.18	1.16432
1682.44	0.177765
1682.7	1.16736
1682.95	3.1451
1683.21	0.183502
1683.47	3.14843
1683.73	1.17311
1683.99	1.17252
1684.25	2.16068
1684.51	0.186838
1684.77	0.188412
1685.03	3.15262
1685.29	4.14219
1685.55	-1.78024
1685.8	1.18504
1686.06	0.202066
1686.32	-1.76801
1686.58	1.19923
1686.84	1.20119
1687.1	4.1649
1687.36	3.17656
1687.62	-0.774099
1687.88	1.20116
1688.14	2.18826
1688.39	0.212217
1688.65	5.1455
1688.91	-0.777668
1689.17	1.19443
1689.43	1.1922
1689.69	4.14861
1689.95	-0.779139
1690.2	-0.773676
1690.46	2.19044
1690.72	-1.75267
1690.98	-1.74991
1691.24	-0.75853
1691.5	1.21845
1691.76	2.2071
1692.02	3.19449
1692.28	2.2058
1692.53	1.21719
1692.79	3.18681
1693.05	2.19652
1693.31	-3.72224
1693.57	0.219454
1693.83	1.20257
1694.09	1.20036
1694.34	0.214787
1694.6	-0.767748
1694.86	-0.764505
1695.12	-0.761629
1695.38	2.19709
1695.64	1.21532
1695.89	1.22052
1696.15	2.20938
1696.41	1.22506
1696.67	3.19536
1696.93	0.237049
1697.19	0.233727
1697.45	3.18457
1697.7	2.19765
1697.96	3.18028
1698.22	0.226187
1698.48	0.225697
1698.74	-0.757475
1699	2.19612
1699.26	2.19924
1699.51	1.21718
1699.77	0.234688
1700.03	-1.73456
1700.29	2.20198
1700.55	-0.748449
1700.81	1.21959
1701.06	0.235674
1701.32	0.234138
1701.58	1.21539
1701.84	3.17957
1702.1	1.21135
1702.35	1.21011
1702.61	3.17624
1702.87	1.212
1703.13	0.229769
1703.39	-2.71749
1703.65	1.21376
1703.9	1.21769
1704.16	-0.743654
1704.42	-0.741705
1704.68	-0.740906
1704.94	2.20775
1705.19	3.19221
1705.45	5.15805
1705.71	-1.72091
1705.97	-0.740795
1706.23	1.22038
1706.48	4.16198
1706.74	1.21396
1707	1.21104
1707.26	1.20706
1707.52	1.20234
1707.77	-0.762909
1708.03	1.19261
1708.29	1.18707
1708.55	2.1621
1708.81	2.15939
1709.06	-1.75759
1709.32	2.15893
1709.58	0.20265
1709.84	1.18372
1710.1	2.16518
1710.35	-1.74715
1710.61	0.21529
1710.87	2.17742
1711.13	-1.73675
1711.39	1.20456
1711.64	1.20594
1711.9	4.14256
1712.16	0.220474
1712.42	3.15001
1712.67	-1.74904
1712.93	0.202116
1713.19	3.12809
1713.45	-0.785545
1713.71	-0.7869
1713.96	2.14304
1714.22	-0.787317
1714.48	-0.786659
1714.74	1.16837
1714.99	1.17529
1715.25	0.202497
1715.51	0.203489
1715.77	0.203226
1716.02	1.17851
1716.28	0.198849
1716.54	0.194647
1716.8	0.189182
1717.05	-1.76878
1717.31	-1.77605
1717.57	0.167992
1717.83	-1.78649
1718.08	1.13179
1718.34	-1.79186
1718.6	0.155289
1718.86	-0.816666
1719.12	0.158018
1719.37	5.02608
1719.63	3.08349
1719.89	2.1111
1720.14	1.13645
1720.4	-2.7595
1720.66	0.156385
1720.92	3.07331
1721.17	4.04274
1721.43	3.06645
1721.69	-1.79876
1721.95	3.05815
1722.2	-2.77625
1722.46	1.10745
1722.72	-2.78038
1722.98	1.10307
1723.23	0.131504
1723.49	0.133308
1723.75	-2.78026
1724	3.04605
1724.26	-0.839777
1724.52	1.09731
1724.78	-0.849625
1725.03	-1.82407
1725.29	-1.82901
1725.55	-1.83108
1725.8	-1.83101
1726.06	-1.82816
1726.32	0.109392
1726.58	0.10729
1726.83	1.07096
1727.09	0.105017
1727.35	-0.858366
1727.6	0.109713
1727.86	-0.861395
1728.12	1.06501
1728.38	2.00342
1728.63	0.0464706
1728.89	-0.922066
1729.15	0.0555515
1729.4	-1.86565
1729.66	-2.82782
1729.92	1.02711
1730.18	0.0585556
1730.43	-0.90131
1730.69	1.04827
1730.95	0.0843296
1731.2	2.98526
1731.46	-0.879782
1731.72	-0.879694
1731.97	2.01871
1732.23	-0.880878
1732.49	2.01551
1732.74	-0.885374
1733	0.0754948
1733.26	1.03395
1733.51	-0.901596
1733.77	1.98736
1734.03	-0.91011
1734.29	-2.84216
1734.54	-1.88255
1734.8	-3.81289
1735.06	1.96186
1735.31	-0.929054
1735.57	2.92019
1735.82	0.0320683
1736.08	0.031208
1736.34	0.0300312
1736.6	1.95294
1736.85	2.91315
1737.11	1.94985
1737.37	3.87173
1737.62	0.0225544
1737.88	1.94246
1738.14	1.93945
1738.39	0.975311
1738.65	-2.87111
1738.91	-2.8747
1739.16	-1.91992
1739.42	-0.966755
1739.67	0.945467
1739.93	-0.978207
1740.19	-2.89924
1740.44	-0.0267792
1740.7	-0.02981
1740.96	-0.99053
1741.21	-0.0351772
1741.47	-0.994293
1741.73	0.920235
1741.98	-0.0368977
1742.24	1.87712
1742.5	-0.995375
1742.75	-3.86655
1743.01	-0.0370178
1743.26	0.918722
1743.52	-0.0413227
1743.78	-0.99951
1744.03	-2.91418
1744.29	0.912489
1744.55	-0.999271
1744.8	1.8719
1745.06	-2.90965
1745.32	-0.996603
1745.57	-1.95432
1745.83	1.86763
1746.09	0.907307
1746.34	-0.0531483
1746.6	0.89959
1746.85	-1.01563
1747.11	0.891819
1747.37	-2.93045
1747.62	2.79705
1747.88	0.888874
1748.13	-1.97326
1748.39	-1.01665
1748.65	1.84992
1748.9	-1.96549
1749.16	0.903553
1749.42	-1.95675
1749.67	-0.996244
1749.93	-0.0352631
1750.18	0.92557
1750.44	0.92775
1750.7	-0.0246162
1750.95	1.88844
1751.21	-1.93734
1751.46	-0.0303364
1751.72	0.920509
1751.98	1.87244
1752.23	-0.0405979
1752.49	-0.043766
1752.74	-1.00115
1753	0.905233
1753.26	-1.00515
1753.51	-1.00706
1753.77	0.897457
1754.02	1.84797
1754.28	0.892673
1754.53	-2.92189
1754.79	0.889961
1755.05	-0.0646286
1755.3	4.69735
1755.56	-0.069931
1755.81	0.878839
1756.07	-0.0777187
1756.33	0.869118
1756.58	1.81557
1756.84	-0.0910454
1757.09	-1.99459
1757.35	-1.04374
1757.6	-1.04049
1757.86	-0.0835228
1758.12	1.82205
1758.37	-1.98264
1758.63	-1.02979
1758.88	0.874926
1759.14	-1.97818
1759.39	2.78036
1759.65	-1.97788
1759.91	-3.88119
1760.16	-0.0761909
1760.42	-2.93119
1760.67	-0.079668
1760.93	0.868599
1761.18	-0.0843163
1761.44	2.76657
1761.69	-1.03629
1761.95	-1.03483
1762.21	-1.03094
1762.46	0.873373
1762.72	0.874372
1762.97	-0.0758343
1763.23	-1.02485
1763.48	0.879482
1763.74	3.7359
1763.99	-1.01329
1764.25	-0.055151
1764.5	-1.00299
1764.76	0.904024
1765.02	-0.997147
1765.27	-0.995026
1765.53	-0.0414143
1765.78	0.911596
1766.04	-1.94432
1766.29	2.81491
1766.55	-0.0406761
1766.8	2.81534
1767.06	-1.94458
1767.31	-0.994562
1767.57	2.81028
1767.82	1.85696
1768.08	-1.94816
1768.33	-0.0473251
1768.59	-1.95695
1768.84	-0.0642071
1769.1	-0.073349
1769.36	2.77236
1769.61	-0.0743313
1769.86	-0.0673809
1770.12	2.78662
1770.38	2.78816
1770.63	-4.81018
1770.89	-1.95293
1771.14	-0.995687
1771.4	-0.042778
1771.65	-0.0402565
1771.91	0.915436
1772.16	-0.0307693
1772.42	0.924297
1772.67	-0.975586
1772.93	-0.0208321
1773.18	-2.87337
1773.44	1.88864
1773.69	2.84318
1773.95	-3.819
1774.2	0.943272
1774.46	0.947321
1774.71	0.949705
1774.97	-0.950018
1775.22	0.0125523
1775.48	-1.88897
1775.73	3.83372
1775.99	1.92839
1776.24	-1.88512
1776.5	-0.93339
1776.75	0.0175476
1777.01	0.0164318
1777.26	0.0138874
1777.51	0.0114803
1777.77	0.00896072
1778.03	-1.89796
1778.28	1.90714
1778.53	-1.90438
1778.79	1.89812
1779.04	0.945013
1779.3	-0.00447083
1779.55	-2.85373
1779.81	-0.948299
1780.06	-2.8496
1780.32	1.91226
1780.57	5.72285
1780.83	-1.8916
1781.08	-0.937698
1781.34	0.969376
1781.59	0.973156
1781.85	2.88261
1782.1	0.0301743
1782.36	-0.918993
1782.61	1.94288
1782.86	0.993143
1783.12	0.0434589
1783.37	-0.906412
1783.63	0.0507202
1783.88	1.96279
1784.14	-0.893137
1784.39	-0.889711
1784.65	1.02059
1784.9	0.0671711
1785.15	1.02092
1785.41	-2.79611
1785.66	4.83462
1785.92	0.0667248
1786.17	1.02364
1786.43	1.02801
1786.68	-0.875387
1786.94	-2.77865
1787.19	-1.81566
1787.44	-1.80446
1787.7	0.120193
1787.95	-1.78152
1788.21	-0.817316
1788.46	1.10175
1788.72	-0.807178
1788.97	3.03237
1789.23	1.12146
1789.48	-1.75041
1789.73	3.04572
1789.99	0.172874
1790.24	0.17359
1790.5	-1.74347
1790.75	-2.70768
1791	-2.71392
1791.26	-0.799198
1791.51	-0.79954
1791.77	3.03262
1792.02	0.161036
1792.28	-1.7521
1792.53	3.04043
1792.78	-1.74694
1793.04	2.08585
1793.29	-1.74411
1793.55	-0.783457
1793.8	-2.69806
1794.05	2.09231
1794.31	1.13267
1794.56	3.06035
1794.82	0.199369
1795.07	1.1685
1795.32	-0.746017
1795.58	2.1381
1795.83	0.222343
1796.09	-1.69404
1796.34	0.231592
1796.6	0.236305
1796.85	0.240671
1797.1	1.20569
1797.36	-2.63612
1797.61	0.250786
1797.86	1.21484
1798.12	-1.66793
1798.37	-2.62873
1798.63	0.255533
1798.88	0.254166
1799.13	-0.709372
1799.39	-1.67319
1799.64	-0.714319
1799.9	-1.67671
1800.15	-1.67774
1800.4	3.12453
1800.66	0.242691
1800.91	-0.71744
1801.16	0.24408
1801.42	2.16689
1801.67	1.20869
1801.93	1.21163
1802.18	2.17619
1802.43	0.258635
1802.69	4.10843
1802.94	2.19136
1803.19	3.15718
1803.45	-0.687159
1803.7	-0.685328
1803.95	-3.56742
1804.21	1.24689
1804.46	-0.673172
1804.71	3.18209
1804.97	1.26293
1805.22	-0.657379
1805.48	1.27368
1805.73	-0.648836
1805.98	-1.6087
1806.24	2.24912
1806.49	2.25159
1806.74	3.21674
1807	-1.60122
1807.25	0.327293
1807.5	-1.59921
1807.76	-0.634184
1808.01	1.2949
1808.26	0.332497
1808.52	1.29804
1808.77	0.335705
1809.02	-0.626831
1809.28	-0.625141
1809.53	-1.58767
1809.79	0.342056
1810.04	-0.621181
1810.29	0.342661
1810.55	-0.621422
1810.8	1.30742
1811.05	1.30781
1811.3	0.34445
1811.56	3.23785
1811.81	-0.616419
1812.06	-0.613493
1812.32	0.354494
1812.57	0.358755
1812.82	0.361801
1813.08	1.32891
1813.33	0.368004
1813.58	0.373407
1813.84	-1.55162
1814.09	-2.51117
1814.34	0.392445
1814.6	0.396942
1814.85	-2.49863
1815.1	4.26851
1815.36	1.37102
1815.61	-1.52669
1815.86	0.408106
1816.12	-1.5226
1816.37	1.37873
1816.62	1.37885
1816.88	0.408438
1817.13	0.400139
1817.38	0.396645
1817.63	0.398998
1817.89	-0.562359
1818.14	-0.556271
1818.39	-0.554256
1818.64	1.37908
1818.9	-0.551315
1819.15	0.418453
1819.4	-0.545374
1819.66	-0.542778
1819.91	-1.50659
1820.16	-1.50344
1820.42	2.36775
1820.67	-2.46557
1820.92	0.439882
1821.18	-0.5238
1821.43	-0.520437
1821.68	-0.51757
1821.93	3.35657
1822.19	-0.513126
1822.44	-0.511215
1822.69	-0.509552
1822.94	-1.47754
1823.2	1.42574
1823.45	1.42448
1823.7	1.42555
1823.95	0.460165
1824.21	-2.44149
1824.46	0.465244
1824.71	-0.500183
1824.96	-1.46575
1825.22	-0.495432
1825.47	0.474077
1825.72	2.4117
1825.98	4.35015
1826.23	-1.45946
1826.48	1.44746
1826.73	-0.48737
1826.99	3.39009
1827.24	-1.45063
1827.49	1.45856
1827.74	3.39681
1828	0.490263
1828.25	3.39511
1828.5	2.42423
1828.75	1.45492
1829.01	-0.481844
1829.26	-0.481785
1829.51	1.45483
1829.76	0.484686
1830.02	-1.45277
1830.27	3.38668
1830.52	-1.45224
1830.77	0.487316
1831.03	-0.477663
1831.28	-3.37989
1831.53	-1.43984
1831.78	0.500862
1832.04	6.31809
1832.29	1.47865
1832.54	0.51263
1832.79	-2.3944
1833.04	-3.3623
1833.3	0.517893
1833.55	1.48877
1833.8	2.4608
1834.05	1.48506
1834.31	1.47464
1834.56	0.497883
1834.81	0.490015
1835.06	1.45359
1835.31	-3.3873
1835.57	-2.41826
1835.82	1.44555
1836.07	-0.394373
1836.32	0.549669
1836.58	-0.442635
1836.83	-1.41582
1837.08	-0.460785
1837.33	1.46511
1837.58	-2.42267
1837.84	0.468714
1838.09	-2.42877
1838.34	0.508711
1838.59	0.51812
1838.85	2.46338
1839.1	0.528437
1839.35	3.43962
1839.6	0.536715
1839.85	-0.451359
1840.11	1.47346
1840.36	2.42985
1840.61	-2.41263
1840.86	-2.4193
1841.11	2.40329
1841.36	0.465229
1841.62	-0.505751
1841.87	-1.47557
1842.12	-2.4437
1842.37	1.41859
1842.62	-0.511501
1842.88	1.42074
1843.13	-1.47271
1843.38	1.4218
1843.63	0.456255
1843.88	2.3866
1844.14	-2.4334
1844.39	-1.46809
1844.64	-2.43402
1844.89	1.42572
1845.14	1.42821
1845.39	4.33277
1845.65	0.48167
1845.9	1.45709
1846.15	-1.43196
1846.4	0.487885
1846.65	2.38893
1846.9	-1.49108
1847.16	-0.532049
1847.41	-2.45442
1847.66	-1.48221
1847.91	3.34046
1848.16	4.29423
1848.41	0.439268
1848.67	-0.522898
1848.92	-1.48843
1849.17	-1.49249
1849.42	0.427273
1849.67	-0.539602
1849.92	0.416399
1850.18	-0.549276
1850.43	-1.51365
1850.68	1.36562
1850.93	-1.51847
1851.18	1.36114
1851.43	-0.560257
1851.68	-0.560009
1851.94	-1.5194
1852.19	2.3225
1852.44	-1.5176
1852.69	-1.5173
1852.94	-1.51752
1853.19	-0.558676
1853.44	1.35803
1853.69	-1.52534
1853.95	0.388386
1854.2	-0.57448
1854.45	1.34173
1854.7	-0.57815
1854.95	2.29213
1855.2	-0.587484
1855.45	2.28448
1855.71	2.28362
1855.96	-0.589676
1856.21	-0.588602
1856.46	0.369867
1856.71	-1.54562
1856.96	-1.54638
1857.21	3.2404
1857.46	2.2812
1857.72	-2.50767
1857.97	-0.595877
1858.22	-0.59903
1858.47	-0.602215
1858.72	-0.605658
1858.97	-0.609297
1859.22	1.30114
1859.47	1.30217
1859.72	-0.609062
1859.98	-1.56256
1860.23	-0.601789
1860.48	1.31489
1860.73	1.31891
1860.98	-1.54664
1861.23	1.3276
1861.48	1.32922
1861.73	-0.585014
1861.98	-1.5438
1862.24	0.366547
1862.49	3.23198
1862.74	0.35961
1862.99	-1.55548
1863.24	1.30897
1863.49	-2.51577
1863.74	0.348276
1863.99	-0.609135
1864.24	2.25358
1864.49	-0.614166
1864.74	2.24566
1864.99	2.24039
1865.25	0.326498
1865.5	-0.633392
1865.75	2.21957
1866	-1.59925
1866.25	-0.652822
1866.5	1.24452
1866.75	-0.665464
1867	0.280138
1867.25	-0.674938
1867.5	0.274216
1867.75	-0.677479
1868	-2.57877
1868.25	-1.62654
1868.51	1.22756
1868.76	-0.673317
1869.01	-1.62395
1869.26	-4.47576
1869.51	1.2277
1869.76	-2.57422
1870.01	1.2278
1870.26	2.1785
1870.51	0.278309
1870.76	0.279078
1871.01	1.22879
1871.26	1.22752
1871.51	0.27494
1871.76	-1.62581
1872.01	0.273218
1872.26	0.270454
1872.52	-2.5806
1872.77	1.21585
1873.02	1.21634
1873.27	-1.63208
1873.52	0.264582
1873.77	-1.63581
1874.02	-1.63857
1874.27	-2.5902
1874.52	-0.696815
1874.77	4.039
1875.02	4.9814
1875.27	-0.710117
1875.52	0.227278
1875.77	-1.67053
1876.02	4.00251
1876.27	0.21467
1876.52	-2.62422
1876.77	0.203682
1877.02	3.02705
1877.27	3.00355
1877.52	0.197321
1877.77	2.16494
1878.02	1.17582
1878.27	3.06586
1878.52	0.227463
1878.78	2.14242
1879.02	-0.69211
1879.27	-0.697842
1879.52	-1.64842
1879.78	1.19265
1880.03	1.19283
1880.28	1.19808
1880.53	3.08772
1880.78	-1.64596
1881.03	-3.54488
1881.28	1.17764
1881.53	0.223549
1881.78	5.88325
1882.03	0.204708
1882.28	0.193733
1882.53	0.18886
1882.78	1.13754
1883.03	1.24438
1883.28	0.212885
1883.53	-0.767952
1883.78	-0.762712
1884.03	2.0749
1884.28	1.12493
1884.53	-0.751764
1884.78	-1.68601
1885.03	0.204428
1885.28	-0.734652
1885.53	-1.66976
1885.78	2.11247
1886.03	2.1159
1886.28	-0.71912
1886.53	-0.724733
1886.78	0.21616
1887.03	-0.730574
1887.28	-1.67707
1887.52	-0.737204
1887.78	1.14409
1888.03	-1.68943
1888.27	-1.69394
1888.52	-0.756371
1888.77	-0.760256
1889.02	1.12127
1889.27	-0.761139
1889.52	1.12222
1889.77	2.06715
1890.02	2.07318
1890.27	2.07845
1890.52	1.13879
1890.77	1.13884
1891.02	0.196863
1891.27	1.13926
1891.52	1.13912
1891.77	-1.68548
1892.02	2.08114
1892.27	0.196287
1892.52	-0.747892
1892.77	0.187037
1893.02	0.177984
1893.27	0.170706
1893.52	0.172132
1893.77	1.11353
1894.02	1.10846
1894.27	3.92495
1894.52	1.10658
1894.76	1.10851
1895.02	2.05085
1895.26	0.174889
1895.51	0.178288
1895.76	-2.63777
1896.01	2.06651
1896.26	-0.749138
1896.51	1.13579
1896.76	0.19891
1897.01	0.201735
1897.26	-3.55901
1897.51	-0.736038
1897.76	0.20455
1898.01	1.1439
1898.26	0.201279
1898.51	0.198111
1898.75	2.07441
1899.01	3.01191
1899.25	-0.747477
1899.5	0.190775
1899.75	-1.68871
1900	2.06949
1900.25	0.192884
1900.5	-0.743355
1900.75	2.08012
1901	3.02534
1901.25	3.03084
1901.5	0.215582
1901.75	-0.718893
1902	0.226141
1902.25	1.16776
1902.49	-1.65437
1902.74	-0.714495
1902.99	1.16551
1903.24	-1.65574
1903.49	-0.715277
1903.74	2.10585
1903.99	0.226158
1904.24	-4.47403
1904.49	0.226931
1904.74	-1.65252
1904.98	-3.53164
1905.23	1.16857
1905.48	-0.7162
1905.73	0.21945
1905.98	-2.59956
1906.23	-0.721792
1906.48	0.21689
1906.73	1.15595
1906.98	0.218861
1907.23	2.09925
1907.47	0.225437
1907.72	1.16924
1907.97	1.1719
1908.22	-1.64429
1908.47	1.17795
1908.72	4.00196
1908.97	0.247797
1909.22	-0.686359
1909.47	-0.679699
1909.71	-1.61344
1909.96	0.276165
1910.21	0.282911
1910.46	0.288193
1910.71	-1.59152
1910.96	1.23719
1911.21	-0.64489
1911.46	2.18215
1911.7	0.297977
1911.95	0.298262
1912.2	0.29924
1912.45	-1.58311
1912.7	-0.639904
1912.95	1.24604
1913.2	-2.51746
1913.45	-0.626619
1913.69	0.322807
1913.94	4.09958
1914.19	1.2765
1914.44	-0.604576
1914.69	-0.599842
1914.94	-1.53979
1915.18	1.29325
1915.43	1.2939
1915.68	1.29352
1915.93	-1.53643
1916.18	-1.53798
1916.43	-1.54009
1916.68	-0.598574
1916.92	0.343134
1917.17	0.342714
1917.42	1.28576
1917.67	0.345255
1917.92	-0.59339
1918.17	-1.5311
1918.42	-0.581779
1918.66	-1.5188
1918.91	-1.51205
1919.16	-0.558992
1919.41	-0.551893
1919.66	-1.49248
1919.91	2.289
1920.15	-0.546915
1920.4	0.401615
1920.65	0.407949
1920.9	2.30501
1921.15	-1.47317
1921.39	-0.523628
1921.64	0.424801
1921.89	0.426003
1922.14	0.425695
1922.39	3.26064
1922.64	-2.41331
1922.89	3.25862
1923.13	2.31305
1923.38	-0.523018
1923.63	0.420763
1923.88	-2.41582
1924.13	5.14193
1924.37	0.419033
1924.62	-1.46816
1924.87	-1.46436
1925.12	0.431023
1925.37	3.27469
1925.61	-0.501024
1925.86	2.34281
1926.11	2.34993
1926.36	3.30446
1926.61	-0.477003
1926.86	-2.36672
1927.1	2.37183
1927.35	2.37579
1927.6	-1.40936
1927.85	0.488527
1928.1	-1.40367
1928.34	0.495228
1928.59	2.39431
1928.84	-2.33999
1929.09	1.45726
1929.33	2.41346
1929.58	-0.425964
1929.83	0.529957
1930.08	2.43385
1930.33	0.542162
1930.57	0.54435
1930.82	0.546286
1931.07	0.545938
1931.32	1.49412
1931.57	3.3912
1931.81	1.49161
1932.06	0.541491
1932.31	0.539959
1932.56	0.540953
1932.8	-2.30615
1933.05	2.44017
1933.3	2.44819
1933.55	0.561352
1933.79	2.47552
1934.04	-0.357111
1934.29	1.56283
1934.54	1.57849
1934.79	2.54468
1935.03	2.55584
1935.28	-1.25172
1935.53	-0.310755
1935.78	2.55006
1936.02	1.59695
1936.27	-0.310001
1936.52	-5.07575
1936.77	-2.2202
1937.01	1.58706
1937.26	5.3926
1937.51	-1.27329
1937.76	-1.27522
1938	-1.27333
1938.25	0.638765
1938.5	0.641809
1938.75	-3.16307
1938.99	1.60337
1939.24	-0.297916
1939.49	-1.24632
1939.74	-0.291473
1939.98	1.6209
1940.23	-0.279137
1940.48	-0.265381
1940.73	1.65054
1940.97	0.696892
1941.22	2.60383
1941.47	-1.21778
1941.72	-0.272621
1941.96	2.59879
1942.21	0.712076
1942.46	0.716267
1942.71	3.58238
1942.95	0.710924
1943.2	-1.20386
1943.45	0.70051
1943.7	2.62378
1943.94	2.62878
1944.19	2.63469
1944.44	0.730959
1944.68	-2.12875
1944.93	3.60968
1945.18	-0.206535
1945.42	2.66667
1945.67	0.759665
1945.92	-1.14866
1946.17	3.63651
1946.41	0.769798
1946.66	1.72713
1946.91	2.68315
1947.16	-0.186075
1947.4	1.72756
1947.65	1.72889
1947.9	1.7301
1948.14	-1.13825
1948.39	-0.179428
1948.64	-3.04377
1948.89	1.74375
1949.13	1.74951
1949.38	1.75605
1949.62	1.76301
1949.87	1.77306
1950.12	0.825243
1950.37	3.70894
1950.61	0.842281
1950.86	-2.02647
1951.11	-0.0997505
1951.35	-0.0930328
1951.6	1.83211
1951.85	0.876348
1952.1	1.84091
1952.34	-1.0392
1952.59	0.886841
1952.83	3.77438
1953.08	-1.9937
1953.33	0.881577
1953.58	-1.04786
1953.82	1.8212
1954.07	1.81254
1954.32	-0.110369
1954.56	0.846867
1954.81	-1.06782
1955.06	-1.06395
1955.3	0.859226
1955.55	1.82841
1955.8	1.84278
1956.04	-0.0695629
1956.29	1.8575
1956.54	1.86259
1956.78	1.86871
1957.03	0.913666
1957.28	-0.0421982
1957.52	0.92276
1957.77	2.84831
1958.02	2.85127
1958.26	3.81471
1958.51	2.85304
1958.76	-1.95385
1959	0.928757
1959.25	0.929262
1959.5	-1.95408
1959.74	0.926435
1959.99	1.88543
1960.23	-0.997049
1960.48	-0.998695
1960.73	1.87948
1960.98	1.87808
1961.22	-1.00099
1961.47	-0.998854
1961.71	-0.996429
1961.96	0.925329
1962.21	-0.0321484
1962.45	5.72937
1962.7	0.932253
1962.95	-0.0255146
1963.19	-0.983315
1963.44	-0.980801
1963.69	-2.89757
1963.93	2.86695
1964.18	1.90768
1964.42	-0.0124588
1964.67	1.90969
1964.92	-0.00974464
1965.16	3.83319
1965.41	2.87686
1965.66	0.961403
1965.9	-0.954311
1966.15	0.0117531
1966.39	-0.945072
1966.64	0.0194244
1966.89	-0.940714
1967.13	0.983593
1967.38	0.986742
1967.63	0.0275078
1967.87	0.0299015
1968.12	-1.8919
1968.36	0.991816
1968.61	0.98982
1968.86	-0.935169
1969.1	-1.89967
1969.35	1.93777
1969.59	-0.945627
1969.84	0.0122681
1970.09	-0.948257
1970.33	3.84773
1970.58	0.00860596
1970.82	2.88599
1971.07	-0.951242
1971.32	2.88549
1971.56	0.970592
1971.81	3.85176
1972.05	0.0168591
1972.3	2.89605
1972.55	-1.90071
1972.79	4.8116
1973.04	-0.945251
1973.28	0.0119991
1973.53	0.0112457
1973.78	0.969845
1974.02	0.970739
1974.27	0.0139332
1974.51	-0.9424
1974.76	0.977861
1975.01	2.89945
1975.25	1.94523
1975.5	1.94933
1975.74	-0.924644
1975.99	0.0370712
1976.23	0.998436
1976.48	-0.918549
1976.73	3.87848
1976.97	1.00097
1977.22	2.91835
1977.46	0.0398407
1977.71	1.95595
1977.95	1.95484
1978.2	-0.921309
1978.45	0.0377064
1978.69	1.95625
1978.94	4.83399
1979.18	1.95995
1979.43	2.92096
1979.67	0.0469303
1979.92	1.0049
1980.17	1.96119
1980.41	1.95949
1980.66	-0.914743
1980.9	2.91586
1981.15	0.99963
1981.39	-0.915674
1981.64	3.87405
1981.88	0.0437889
1982.13	0.999695
1982.37	1.95553
1982.62	0.995001
1982.87	3.86153
1983.11	-1.88153
1983.36	0.0318623
1983.6	2.90166
1983.85	2.90107
1984.09	0.987717
1984.34	2.90021
1984.58	0.985708
1984.83	-0.929558
1985.08	0.0259914
1985.32	0.0277538
1985.56	0.985813
1985.81	-0.920597
1986.06	0.0718021
1986.3	0.00489616
1986.55	1.81278
1986.79	-0.898472
1987.04	-1.80131
1987.28	1.45811
1987.53	-1.75602
1987.77	2.71125
1988.02	0.243225
1988.26	0.204634
1988.51	-0.903433
1988.75	0.211874
1989	-0.305042
1989.24	-0.182728
1989.49	-0.195265
1989.73	1.32116
1989.98	0.352671
1990.22	-1.15151
1990.47	0.734789
1990.72	0.730497
1990.96	0.727839
1991.2	0.0164509
1991.45	0.466307
1991.7	1.89932
1991.94	0.208481
1992.19	-0.281494
1992.43	1.9642
1992.68	1.03116
1992.92	0.272455
1993.17	0.0953674
1993.41	0.848383
1993.66	0.254875
1993.9	1.12547
1994.15	-1.47746
1994.39	-1.53552
1994.63	-0.970938
1994.88	0.57398
1995.13	0.564571
1995.37	0.915718
1995.61	1.2431
1995.86	2.04283
1996.11	0.25149
1996.35	-0.790352
1996.59	0.590647
1996.84	2.04882
1997.08	1.77926
1997.33	0.366091
1997.57	-0.0972633
1997.82	0.398666
1998.06	1.7437
1998.31	2.01442
1998.55	-2.15927
1998.8	-0.993822
1999.04	-1.31964
1999.29	-0.844568
1999.53	-0.85899
1999.78	0.268921
2000.02	0.236366
2000.27	0.580553
2000.51	-0.334345
2000.76	1.16732
2001	0.483583
2001.24	-1.27449
2001.49	0.19319
2001.73	-0.169195
2001.98	0.207323
2002.22	-0.168303
2002.47	-2.54138
2002.71	-0.495932
2002.96	1.0403
2003.2	0.889965
2003.45	0.887888
2003.69	-0.0880985
2003.93	-2.26912
2004.18	-0.953094
2004.42	-1.00886
2004.67	-0.355244
2004.91	-0.526302
2005.16	-0.668282
2005.4	-0.177067
2005.65	-0.264807
2005.89	0.298073
2006.13	0.566839
2006.38	-0.344269
2006.62	-0.686157
2006.87	-0.280329
2007.11	-0.356838
2007.36	2.18336
2007.6	-0.595625
2007.81	1.82796
2008.06	-1.00941
2008.31	-0.0686054
2008.56	0.872019
2008.8	-0.0756245
2009.05	-2.90866
2009.3	0.859539
2009.55	-0.086113
2009.79	-0.0890064
2010.04	-1.03431
2010.29	-1.03378
2010.53	1.79257
2010.78	-0.0902901
2011.03	-1.03115
2011.28	-0.0886421
2011.52	1.79517
2011.77	1.79558
2012.02	1.79552
2012.27	-1.02978
2012.51	-0.0908146
2012.76	-1.97869
2013.01	-1.04372
2013.26	0.832941
2013.5	-1.05257
2013.75	-1.05878
2014	-1.0667
2014.24	1.74363
2014.49	0.80479
2014.74	-0.13129
2014.99	-2.00459
2015.23	0.815653
2015.48	-1.05884
2015.73	2.69403
2015.97	-0.111307
2016.22	2.71958
2016.47	-1.9768
2016.71	0.842695
2016.96	0.840832
2017.21	0.83746
2017.46	3.65015
2017.7	3.64279
2017.95	-2.93313
2018.2	1.753
2018.44	-1.06607
2018.69	1.74029
2018.94	1.73475
2019.18	-0.140482
2019.43	-0.142
2019.68	1.73169
2019.93	0.795839
2020.17	-0.140469
2020.42	0.7967
2020.67	-2.01037
2020.91	-0.135023
2021.16	-0.133877
2021.41	2.67615
2021.65	-0.134188
2021.9	1.73711
2022.15	-2.01026
2022.4	-2.94899
2022.64	1.72634
2022.89	1.72377
2023.14	-2.02055
2023.38	1.71754
2023.63	-1.09009
2023.88	-3.89607
2024.12	-2.03114
2024.37	-0.167242
2024.62	-0.171888
2024.86	-0.176126
2025.11	-0.180052
2025.36	-0.183693
2025.6	-2.05338
2025.85	-0.183884
2026.1	-0.175297
2026.34	6.37419
2026.59	-3.88561
2026.84	3.60934
2027.08	-0.123457
2027.33	0.808987
2027.57	-1.07234
2027.82	-0.158205
2028.07	1.67646
2028.32	-0.135971
2028.56	-0.0900249
2028.81	0.822243
2029.06	-1.9779
2029.3	-0.132662
2029.55	0.782389
2029.79	-2.96405
2030.04	-0.169031
2030.29	-0.176517
2030.53	-0.162739
2030.78	-2.02041
2031.03	0.778032
2031.27	-0.153864
2031.52	0.781912
2031.77	1.72191
2032.01	-1.07156
2032.26	1.73783
2032.5	0.810709
2032.75	-2.92218
2033	-0.113293
2033.24	-1.97698
2033.49	0.829075
2033.74	1.75542
2033.98	3.6086
2034.23	0.791248
2034.48	2.65716
2034.72	1.73277
2034.97	-1.99359
2035.21	1.75454
2035.46	0.834057
2035.71	-1.027
2035.95	-1.96506
2036.2	-0.101156
2036.45	1.77219
2036.69	1.77655
2036.94	0.842287
2037.18	-0.0927658
2037.43	-1.02842
2037.68	1.77485
2037.92	1.77306
2038.17	0.836531
2038.41	-1.03406
2038.66	-0.101515
2038.91	0.830469
2039.15	0.828421
2039.4	1.75855
2039.64	-1.97943
2039.89	-3.8489
2040.14	0.812963
2040.38	0.809616
2040.63	-0.125578
2040.87	0.804811
2041.12	0.80476
2041.37	1.73664
2041.61	-1.99352
2041.86	-1.06223
2042.1	-1.06525
2042.35	-2.92812
2042.6	1.73119
2042.84	1.73442
2043.09	-3.85126
2043.33	2.68297
2043.58	-3.83791
2043.83	1.76219
2044.07	-1.03703
2044.32	0.824615
2044.56	-2.91219
2044.81	-2.92562
2045.05	0.832424
2045.3	0.832804
2045.55	1.80068
2045.79	-1.91241
2046.04	-0.0623913
2046.28	-1.94505
2046.53	-0.0878563
2046.78	1.78196
2047.02	-1.95693
2047.27	0.828489
2047.51	-1.03722
2047.76	2.6936
2048	0.830999
2048.25	-1.03144
2048.5	-1.02711
2048.74	0.842087
2048.99	-0.0857944
2049.23	3.65331
2049.48	0.861357
2049.72	0.867069
2049.97	0.873066
2050.22	-0.0577621
2050.46	-0.990591
2050.71	-1.92532
2050.95	1.80795
2051.2	0.870056
2051.44	-1.93013
2051.69	1.80651
2051.93	-0.991653
2052.18	1.81204
2052.42	0.881289
2052.67	-1.91746
2052.91	-0.0444584
2053.16	-0.0382843
2053.41	-0.965193
2053.65	2.77993
2053.9	-1.89401
2054.14	0.913567
2054.39	0.913885
2054.63	1.84915
2054.88	1.84792
2055.12	-0.960714
2055.37	0.908459
2055.62	-1.8966
2055.86	-1.89734
2056.11	-0.0286064
2056.35	-0.0287552
2056.6	2.77628
2056.84	0.908627
2057.09	0.911051
2057.33	-1.89065
2057.58	0.917822
2057.82	-0.948734
2058.07	2.79822
2058.31	1.86788
2058.56	1.87265
2058.8	0.940006
2059.05	2.81413
2059.29	-0.928585
2059.54	0.944283
2059.78	1.8788
2060.03	0.00450134
2060.27	-1.86742
2060.52	0.943348
2060.76	0.0105762
2061.01	0.949146
2061.25	0.014328
2061.5	-1.85711
2061.74	-0.919392
2061.99	-0.917353
2062.24	0.958267
2062.48	-0.911518
2062.73	0.0291061
2062.97	0.969639
2063.22	-0.901419
2063.46	-0.898977
2063.7	0.0404339
2063.95	0.979986
2064.19	0.983097
2064.44	0.0488663
2064.68	0.99213
2064.93	-0.878029
2065.18	-1.81125
2065.42	0.07057
2065.66	0.0745869
2065.91	-1.8005
2066.15	1.01765
2066.4	0.0817699
2066.64	1.96262
2066.89	1.02577
2067.13	-0.849928
2067.38	1.03289
2067.62	1.03596
2067.87	-2.72103
2068.11	2.92002
2068.36	0.104004
2068.6	-2.71629
2068.85	1.04172
2069.09	-1.78244
2069.34	-1.78907
2069.58	0.0883064
2069.83	0.0911827
2070.07	-0.839382
2070.31	-0.830441
2070.56	1.06038
2070.8	-1.76444
2071.05	0.111792
2071.29	0.138308
2071.54	-1.74181
2071.78	-1.743
2072.03	-0.801836
2072.27	-0.801676
2072.52	2.0218
2072.76	0.139589
2073.01	0.139084
2073.25	-0.800833
2073.5	-0.799732
2073.74	-0.798069
2073.98	2.02979
2074.23	1.09241
2074.47	-0.786261
2074.72	2.99062
2074.96	2.05772
2075.21	1.12476
2075.45	2.07523
2075.69	-0.753086
2075.94	-2.64016
2076.18	3.02482
2076.43	-0.752899
2076.67	2.07524
2076.92	0.183487
2077.16	-0.766191
2077.41	-1.70995
2077.65	-2.65038
2077.9	0.182968
2078.14	2.07188
2078.38	-0.756252
2078.63	0.190514
2078.87	3.02797
2079.12	-1.68472
2079.36	0.207991
2079.61	-1.67797
2079.85	-1.67501
2080.09	2.10721
2080.34	1.16246
2080.58	1.1611
2080.83	1.16035
2081.07	-1.67409
2081.32	0.215559
2081.56	0.215773
2081.8	2.10734
2082.05	2.10924
2082.29	4.94568
2082.54	-0.72369
2082.78	1.16636
2083.02	3.05587
2083.27	1.16574
2083.51	1.16629
2083.76	3.0567
2084	1.16706
2084.24	0.222866
2084.49	-2.61124
2084.73	0.22419
2084.98	1.16965
2085.22	1.16997
2085.47	0.22728
2085.71	1.17791
2085.95	-0.707111
2086.2	3.08011
2086.44	0.244528
2086.69	-1.64503
2086.93	-0.695679
2087.17	-0.694223
2087.42	-1.64007
2087.66	0.253298
2087.9	1.20061
2088.15	0.255352
2088.39	-1.63643
2088.64	1.20437
2088.88	-0.685432
2089.12	-0.682388
2089.37	1.21722
2089.61	-2.57054
2089.85	-0.674816
2090.1	0.274139
2090.34	2.17113
2090.59	2.17364
2090.83	0.280729
2091.07	-0.664888
2091.32	2.1845
2091.56	-0.654556
2091.8	-1.59751
2092.05	-1.59214
2092.29	-0.637024
2092.54	4.11567
2092.78	1.27182
2093.02	1.27689
2093.27	1.28166
2093.51	0.33515
2093.75	-0.612226
2094	1.29027
2094.24	0.339569
2094.49	0.338854
2094.73	2.23875
2094.97	-1.56625
2095.22	0.331715
2095.46	-1.57086
2095.7	2.22784
2095.95	1.27671
2096.19	1.27621
2096.43	3.17516
2096.68	-2.52632
2096.92	1.26919
2097.16	-2.53166
2097.41	0.315361
2097.65	1.26392
2097.89	1.26279
2098.14	0.311623
2098.38	-0.63739
2098.62	-0.637775
2098.87	3.15758
2099.11	0.309874
2099.36	-1.58822
2099.6	1.25915
2099.84	0.310905
2100.08	-0.63706
2100.33	0.314507
2100.57	1.26836
2100.81	0.322285
2101.06	1.27424
2101.3	1.27534
2101.54	1.27531
2101.79	-2.5241
2102.03	2.225
2102.28	0.3241
2102.52	0.32106
2102.76	-0.631685
2103	1.26553
2103.25	0.315586
2103.49	-3.48203
2103.73	-0.633814
2103.98	-1.5814
2104.22	-0.62936
2104.46	1.27247
2104.71	-0.624361
2104.95	1.27879
2105.19	0.332962
2105.44	2.23679
2105.68	1.28858
2105.92	1.2904
2106.17	-1.56062
2106.41	0.341621
2106.65	0.343399
2106.89	2.24507
2107.14	1.29196
2107.38	0.337681
2107.62	0.33293
2107.87	0.328104
2108.11	1.27292
2108.35	0.319878
2108.59	-1.58022
2108.84	1.26941
2109.08	1.27506
2109.32	-0.622179
2109.57	1.27789
2109.81	-0.62203
2110.05	0.327858
2110.3	2.22779
2110.54	0.327822
2110.78	1.27753
2111.02	2.22585
2111.27	0.323391
2111.51	-0.62789
2111.75	2.21995
2112	0.320787
2112.24	0.322815
2112.48	0.324425
2112.72	-0.623329
2112.97	1.28169
2113.21	-0.615824
2113.45	0.336014
2113.7	2.23518
2113.94	3.18383
2114.18	-1.56811
2114.42	0.333464
2114.67	-2.5176
2114.91	-3.46907
2115.15	0.330669
2115.39	1.27941
2115.64	0.327566
2115.88	2.22326
2116.12	0.320065
2116.36	-0.631069
2116.61	1.26723
2116.85	2.21592
2117.09	-0.631989
2117.34	-2.53342
2117.58	-0.63722
2117.82	2.20744
2118.06	1.2528
2118.3	1.2471
2118.55	-0.65402
2118.79	1.23877
2119.03	3.13077
2119.28	2.17854
2119.52	1.22717
2119.76	0.276907
2120	-0.671473
2120.24	-0.670851
2120.49	1.22725
2120.73	5.96819
2120.97	-1.61101
2121.22	0.289259
2121.46	4.08704
2121.7	-1.60102
2121.94	0.299463
2122.18	3.14904
2122.43	0.304064
2122.67	3.15367
2122.91	0.306982
2123.15	-0.642244
2123.4	-0.643879
2123.64	-2.54452
2123.88	3.14664
2124.12	1.2431
2124.36	-1.6099
2124.61	2.17396
2124.85	0.270332
2125.09	1.21128
2125.33	-1.63533
2125.58	0.253105
2125.82	0.248356
2126.06	4.02904
2126.3	0.240334
2126.55	-0.709585
2126.79	2.12374
2127.03	2.12187
2127.27	0.229721
2127.51	-1.66265
2127.76	0.22603
2128	-0.720396
2128.24	1.16997
2128.48	2.11494
2128.72	-0.721991
2128.97	-0.72365
2129.21	1.16518
2129.45	1.16404
2129.69	-1.67222
2129.93	4.94113
2130.18	1.15953
2130.42	0.212551
2130.66	1.15463
2130.9	-1.68202
2131.14	-2.62921
2131.39	-0.743074
2131.63	1.1434
2131.87	1.14069
2132.11	3.0242
2132.35	2.07667
2132.6	3.96188
2132.84	-0.756504
2133.08	-0.756121
2133.32	3.01887
2133.56	1.13125
2133.81	2.07576
2134.05	-2.64317
2134.29	3.01853
2134.53	0.186411
2134.77	1.12923
2135.01	0.184172
2135.26	0.181873
2135.5	0.178232
2135.74	-0.771076
2135.98	-1.7189
2136.22	1.10678
2136.47	-0.777727
2136.71	3.93611
2136.95	1.10791
2137.19	0.166931
2137.43	3.94319
2137.67	2.05351
2137.91	2.99015
2138.16	-0.784365
2138.4	2.99073
2138.64	1.11065
2138.88	1.11426
2139.12	-1.72626
2139.37	1.09598
2139.61	-1.73433
2139.85	2.03134
2140.09	-0.797499
2140.33	0.142206
2140.57	2.02414
2140.81	0.138582
2141.06	0.138756
2141.3	1.07542
2141.54	0.129669
2141.78	1.06937
2142.02	0.127829
2142.26	2.01446
2142.51	2.01675
2142.75	2.03478
2142.99	2.96358
2143.23	0.0874691
2143.47	3.8549
2143.71	0.0975189
2143.95	-0.836245
2144.19	2.93102
2144.44	-1.76957
2144.68	-2.7207
2144.92	0.102388
2145.16	0.102329
2145.4	0.10066
2145.64	1.03882
2145.88	-0.843378
2146.13	2.91472
2146.37	-1.78697
2146.61	1.03031
2146.85	1.02716
2147.09	0.0846539
2147.33	-1.79687
2147.57	1.95836
2147.81	-1.80136
2148.06	2.89186
2148.3	-1.80635
2148.54	2.88482
2148.78	1.00273
2149.02	1.93574
2149.26	0.0515423
2149.5	-1.82872
2149.74	1.91684
2149.98	0.975266
2150.22	-0.901518
2150.47	0.0351791
2150.71	2.84855
2150.95	-0.898943
2151.19	1.91535
2151.43	0.0419884
2151.67	1.91871
2151.91	0.044096
2152.15	-1.83465
2152.4	0.975519
2152.64	1.90911
2152.88	-1.84389
2153.12	0.966127
2153.36	1.90086
2153.6	1.89682
2153.84	-0.919081
2154.08	0.947271
2154.32	0.939058
2154.56	-0.00480652
2154.8	-0.948111
2155.05	-0.0189724
2155.29	-0.0247021
2155.53	2.77378
2155.77	2.76958
2156.01	-0.0354786
2156.25	-1.90509
2156.49	0.896391
2156.73	-0.0380707
2156.97	2.76552
2157.21	0.899193
2157.45	2.77122
2157.69	1.83881
2157.94	-1.89997
2158.18	-0.966015
2158.42	-0.0327797
2158.66	-1.90413
2158.9	1.83105
2159.14	-1.90998
2159.38	-1.91384
2159.62	1.81715
2159.86	0.878176
2160.1	-0.993349
2160.34	0.86949
2160.58	0.867161
2160.82	3.66484
2161.06	-1.93602
2161.3	0.860857
2161.54	-1.93905
2161.79	-0.0738277
2162.03	-1.94022
2162.27	1.79045
2162.51	-1.01056
2162.75	0.852087
2162.99	-0.0830975
2163.23	-2.88297
2163.47	1.77674
2163.71	-1.95529
2163.95	-2.8917
2164.19	1.76311
2164.43	-2.89876
2164.67	1.76062
2164.91	3.62514
2165.15	0.829268
2165.39	0.828943
2165.63	1.76039
2165.87	-0.106386
2166.12	-1.97209
2166.35	-1.97516
2166.6	0.814924
2166.84	2.67413
2167.08	2.66852
2167.32	2.66166
2167.56	0.790302
2167.8	-0.148064
2168.04	-0.150639
2168.28	-1.08108
2168.52	2.63832
2168.76	-4.79826
2169	3.57446
2169.24	0.78896
2169.48	-1.06648
2169.72	0.801218
2169.96	2.66683
2170.2	-3.85153
2170.44	2.66517
2170.68	-0.132505
2170.92	0.795841
2171.16	1.71745
2171.4	-1.08582
2171.64	1.69661
2171.88	-1.0957
2172.12	-0.169868
2172.36	0.756498
2172.6	-1.10278
2172.84	0.754486
2173.08	0.753824
2173.32	-0.17449
2173.56	2.61487
2173.8	-0.172062
2174.04	-2.03076
2174.28	1.68641
2174.52	1.68563
2174.76	3.54329
2175	-1.10533
2175.24	1.68087
2175.48	1.67953
2175.72	-1.10972
2175.96	-1.11193
2176.2	-0.185953
2176.44	2.59923
2176.68	-1.11697
2176.92	-0.188206
2177.16	0.740314
2177.4	-2.04735
2177.64	1.66827
2177.88	-0.192451
2178.12	1.65958
2178.36	0.727133
2178.6	-1.13064
2178.84	3.51181
2179.08	-0.202477
2179.32	1.65407
2179.56	-1.13215
2179.8	0.724073
2180.04	1.6513
2180.28	-0.207407
2180.52	1.6477
2180.76	-0.210176
2181	1.64449
2181.24	-0.214787
2181.48	1.63901
2181.72	-0.21892
2181.96	-0.22172
2182.2	-0.223883
2182.44	2.55665
2182.68	0.697094
2182.92	-1.16251
2183.16	0.686293
2183.4	-1.17168
2183.63	-1.17494
2183.87	-2.10428
2184.11	-2.10547
2184.35	-0.252174
2184.59	3.45558
2184.83	0.676285
2185.07	2.53089
2185.31	0.678957
2185.55	2.53583
2185.79	-0.243168
2186.03	-0.240364
2186.27	1.61952
2186.51	2.55272
2186.75	0.701548
2186.99	1.63474
2187.23	-2.07707
2187.47	0.709183
2187.71	2.5638
2187.95	0.702642
2188.18	-0.229898
2188.43	2.55014
2188.66	1.6167
2188.9	0.683149
2189.14	0.676329
2189.38	-0.255863
2189.62	0.668295
2189.86	-1.18659
2190.1	0.667057
2190.34	-3.03988
2190.58	1.59608
2190.82	0.668566
2191.06	1.59637
2191.3	1.59747
2191.54	0.671242
2191.78	0.672293
2192.01	-1.18193
2192.25	0.674381
2192.49	1.60498
2192.73	1.60759
2192.97	4.39477
2193.21	-1.17086
2193.45	-1.16371
2193.69	0.701872
2193.93	-0.222631
2194.17	-3.00945
2194.41	0.707081
2194.64	-2.0839
2194.88	1.63156
2195.12	0.698601
2195.36	2.5521
2195.6	-0.2407
2195.84	1.60951
2196.08	0.674839
2196.32	-0.257975
2196.56	0.666023
2196.8	2.51771
2197.04	2.51426
2197.27	-0.26815
2197.51	2.51431
2197.75	-1.19434
2197.99	1.59307
2198.23	1.59735
2198.47	1.60279
2198.71	0.680241
2198.95	-1.1732
2199.19	-1.16811
2199.42	-0.23357
2199.66	0.70499
2199.9	3.50628
2200.14	-1.14003
2200.38	-2.06539
2200.62	1.66545
2200.86	2.60162
2201.1	1.65919
2201.34	0.707155
2201.58	2.52159
2201.81	-0.285994
2202.05	-2.12639
2202.29	-2.10019
2202.53	-1.16096
2202.77	2.55396
2203.01	-2.09958
2203.25	-2.07751
2203.49	0.7607
2203.72	-0.191776
2203.96	-0.192167
2204.2	-0.191898
2204.44	-1.13667
2204.68	0.710394
2204.92	3.48658
2205.16	-3.0331
2205.39	0.683281
2205.63	-0.245905
2205.87	0.68774
2206.11	0.6861
2206.35	-0.249449
2206.59	-3.03771
2206.83	0.683556
2207.06	-1.17351
2207.3	-1.17049
2207.54	-0.2369
2207.78	1.62772
2208.02	0.700363
2208.26	-1.15882
2208.49	-0.225775
2208.73	-0.224422
2208.97	-0.223824
2209.21	1.63839
2209.45	0.706211
2209.69	-0.224541
2209.93	-0.222645
2210.17	-2.0837
2210.4	-0.217997
2210.64	2.58017
2210.88	-0.213287
2211.12	-2.07514
2211.36	-0.207064
2211.6	1.66137
2211.83	-1.1344
2212.07	1.66461
2212.31	-0.202675
2212.55	0.727833
2212.79	2.59111
2213.02	1.65456
2213.26	-0.213169
2213.5	1.65264
2213.74	0.723757
2213.98	1.66485
2214.22	-4.86248
2214.45	-1.1277
2214.69	0.740425
2214.93	-2.05947
2215.17	-2.0591
2215.41	2.60925
2215.65	-2.05931
2215.88	-0.192539
2216.12	0.74032
2216.36	0.739143
2216.6	-1.1289
2216.84	-1.12914
2217.07	1.67215
2217.31	0.739075
2217.55	-2.99603
2217.79	-1.12908
2218.03	0.738916
2218.26	-2.99463
2218.5	-2.99279
2218.74	-1.12213
2218.98	2.6179
2219.22	0.750864
2219.45	-2.05043
2219.69	-0.180088
2219.93	-2.05015
2220.17	-2.98554
2220.41	1.68634
2220.64	0.749525
2220.88	0.744589
2221.12	1.67354
2221.36	-0.198324
2221.6	0.731792
2221.83	0.729481
2222.07	-1.13793
2222.31	1.66393
2222.55	-1.13444
2222.78	-2.06606
2223.02	-0.195498
2223.26	0.742897
2223.5	0.748217
2223.74	3.55824
2223.97	-1.11139
2224.21	2.63383
2224.45	7.3159
2224.69	-0.164843
2224.93	-0.160549
2225.16	-1.09192
2225.4	-0.15206
2225.64	1.72493
2225.88	0.792133
2226.11	1.73175
2226.35	1.73606
2226.59	-0.135313
2226.83	2.68019
2227.07	-0.130699
2227.3	2.68362
2227.54	-1.06819
2227.78	-1.0696
2228.02	0.804382
2228.25	0.803047
2228.49	-0.13546
2228.73	-1.07395
2228.96	0.801062
2229.2	-2.00847
2229.44	0.809454
2229.68	0.813812
2229.92	-0.121367
2230.15	-1.05649
2230.39	-0.114401
2230.63	-1.98851
2230.87	-0.106554
2231.1	-0.102278
2231.34	-1.03859
2231.58	1.78408
2231.82	1.78791
2232.05	-1.02871
2232.29	2.73567
2232.53	-1.02247
2232.77	0.86191
2233	1.80621
2233.24	2.75098
2233.48	0.871424
2233.71	-0.0677757
2233.95	-0.0690613
2234.19	1.81189
2234.43	-1.95469
2234.66	-1.95755
2234.9	1.79879
2235.14	-1.02666
2235.38	1.7953
2235.61	-0.0846119
2235.85	-0.0835381
2236.09	2.73914
2236.33	-1.02223
2236.56	-0.0803967
2236.8	1.80574
2237.04	-0.0720081
2237.27	-0.0649376
2237.51	-0.0575066
2237.75	0.89139
2237.98	-0.988441
2238.22	0.901642
2238.46	-0.0354805
2238.7	-1.91602
2238.93	-0.971754
2239.17	-0.0298805
2239.41	-2.86181
2239.65	-0.0373497
2239.88	3.73008
2240.12	-2.87068
2240.36	0.909794
2240.59	-0.0278454
2240.83	-1.91355
2241.07	1.86199
2241.3	-0.0235424
2241.54	-2.85343
2241.78	-0.0203915
2242.02	-0.0182362
2242.25	-0.015749
2242.49	-0.959553
2242.73	-0.0158978
2242.96	3.75729
2243.2	1.86697
2243.44	1.86591
2243.67	1.86568
2243.91	-0.0206928
2244.15	-0.961344
2244.38	-0.955936
2244.62	-1.8933
2244.86	1.8923
2245.09	3.78723
2245.33	-0.934965
2245.57	-0.931087
2245.81	1.90986
2246.04	-0.924328
2246.28	0.0235291
2246.52	-1.86559
2246.75	-0.91666
2246.99	-0.914669
2247.23	0.97925
2247.46	0.979263
2247.7	0.978598
2247.94	0.0314789
2248.17	1.92335
2248.41	-0.91608
2248.65	-0.916655
2248.88	1.92163
2249.12	0.0332775
2249.36	0.0354977
2249.59	-0.910963
2249.83	1.92618
2250.07	0.0304222
2250.3	-2.81072
2250.54	0.0233326
2250.78	0.0207214
2251.01	-0.926796
2251.25	0.0183411
2251.49	0.965088
2251.72	-1.86903
2251.96	-1.86607
2252.2	0.0295353
2252.43	-1.85662
2252.67	-1.8473
2252.91	-0.894028
2253.14	0.0588379
2253.38	-1.83198
2253.61	-1.82863
2253.85	1.96718
2254.09	-1.82252
2254.32	0.0744801
2254.56	1.96928
2254.8	1.02305
2255.03	0.0753479
2255.27	-0.871546
2255.51	1.02624
2255.74	-0.866611
2255.98	0.0857315
2256.22	0.0893822
2256.45	-2.7541
2256.69	1.99468
2256.92	-0.849445
2257.16	-3.69459
2257.4	0.105661
2257.63	0.107204
2257.87	1.05825
2258.11	0.110437
2258.34	2.01251
2258.58	0.116072
2258.81	-1.78087
2259.05	1.07188
2259.29	0.123777
2259.52	-0.823845
2259.76	2.98069
2260	2.03279
2260.23	-1.76761
2260.47	-0.81348
2260.7	1.09529
2260.94	-0.80315
2261.18	-0.80191
2261.41	-0.800117
2261.65	-0.79797
2261.88	1.10762
2262.12	0.159307
2262.36	1.11594
2262.59	-0.783661
2262.83	2.07927
2263.06	2.08619
2263.3	2.09396
2263.54	-1.71182
2263.77	-1.70507
2264.01	1.16403
2264.24	-3.60272
2264.48	1.17545
2264.72	3.09012
2264.95	0.228851
2265.19	1.18543
2265.42	0.231606
2265.66	-0.724386
2265.9	-3.59224
2266.13	0.22427
2266.37	-0.73377
2266.6	1.17209
2266.84	1.16989
2267.08	0.213934
2267.31	0.211876
2267.55	-1.69845
2267.78	-0.746569
2268.02	0.20693
2268.26	-0.744934
2268.49	-1.69527
2268.73	2.12464
2268.96	-0.731607
2269.2	-3.58922
2269.43	0.234922
2269.67	-0.713108
2269.91	3.1145
2270.14	1.20815
2270.38	-2.61111
2270.61	-0.695152
2270.85	3.13312
2271.08	0.268127
2271.32	1.22808
2271.55	1.23251
2271.79	4.10522
2272.03	1.23676
2272.26	3.15212
2272.5	0.283915
2272.73	1.24282
2272.97	-1.62587
2273.2	0.289963
2273.44	0.291971
2273.68	0.293936
2273.91	0.295813
2274.15	3.16941
2274.38	1.25714
2274.62	1.25955
2274.85	0.30435
2275.09	1.26383
2275.32	-0.650219
2275.56	1.26872
2275.79	-0.641335
2276.03	-0.636065
2276.27	2.24366
2276.5	-1.58518
2276.74	0.337135
2276.97	-0.614834
2277.21	2.27101
2277.44	-1.55926
2277.68	-0.591505
2277.91	-0.587904
2278.15	-0.585575
2278.38	1.33664
2278.62	0.376648
2278.85	1.3369
2279.09	0.373943
2279.33	2.28689
2279.56	-1.55558
2279.8	-1.55865
2280.03	0.356909
2280.27	2.2724
2280.5	0.353449
2280.74	2.2701
2280.97	1.31031
2281.21	1.3102
2281.44	-0.603653
2281.68	-3.47694
2281.91	0.361498
2282.15	0.366383
2282.38	2.29023
2282.62	1.33676
2282.85	-0.575846
2283.09	-0.567749
2283.32	-0.558598
2283.56	1.37203
2283.79	-1.5025
2284.03	-2.45887
2284.26	-1.49379
2284.5	2.35956
2284.73	1.40281
2284.97	2.36796
2285.2	0.444742
2285.44	-0.520399
2285.67	1.3988
2285.91	-0.523844
2286.14	-1.48309
2286.38	0.445677
2286.61	2.3805
2286.85	-0.499552
2287.08	1.43033
2287.32	-0.492041
2287.55	0.476816
2287.79	0.476774
2288.02	0.475477
2288.26	-1.45197
2288.49	1.4351
2288.73	4.31835
2288.96	1.42507
2289.2	1.41974
2289.43	-1.47073
2289.67	1.41269
2289.9	0.451149
2290.14	0.452652
2290.37	-1.46806
2290.61	-1.46405
2290.84	-0.49634
2291.08	0.472738
2291.31	2.40292
2291.55	0.482874
2291.78	-1.43791
2292.02	0.492546
2292.25	1.46147
2292.48	0.503765
2292.72	-4.30923
2292.95	2.43997
2293.19	0.51613
2293.42	-1.40921
2293.66	-1.40895
2293.89	2.44532
2294.13	-0.446857
2294.36	0.514902
2294.6	2.44035
2294.83	4.36534
2295.07	-0.450933
2295.3	-1.41451
2295.54	1.4733
2295.77	1.46981
2296.01	1.46436
2296.24	-1.42103
2296.47	-2.38017
2296.71	-0.451759
2296.94	-2.37193
2297.18	1.48405
2297.41	3.41729
2297.65	-1.39087
2297.88	0.541227
2298.11	-1.38191
2298.35	4.40655
2298.58	0.557146
2298.82	-0.401745
2299.05	0.567471
2299.29	0.570608
2299.52	-1.35714
2299.76	0.573746
2299.99	1.53984
2300.23	-0.385571
2300.46	-1.34598
2300.69	0.587915
2300.93	0.5916
2301.16	-1.33602
2301.4	0.596529
2301.63	-0.367657
2301.87	0.597622
2302.1	-1.33187
2302.33	0.600485
2302.57	1.56681
2302.8	0.602501
2303.04	-1.32615
2303.27	0.606163
2303.5	2.54025
2303.74	-0.35063
2303.97	-1.3118
2304.21	0.623072
2304.44	2.55921
2304.68	0.63271
2304.91	-2.26193
2305.14	-0.327045
2305.38	-1.29006
2305.61	0.646637
2305.85	2.58352
2306.08	0.653097
2306.31	2.58834
2306.55	-1.27638
2306.78	2.591
2307.02	4.52373
2307.25	2.59026
2307.48	-2.2407
2307.72	0.658144
2307.95	0.658682
2308.19	-0.305676
2308.42	0.663343
2308.65	2.6006
2308.89	0.672918
2309.12	1.64631
2309.36	-1.24718
2309.59	2.62709
2309.82	-1.23876
2310.06	1.66573
2310.29	-0.267828
2310.53	0.699413
2310.76	-0.270237
2310.99	1.65409
2311.23	0.678612
2311.46	2.60518
2311.7	-1.25883
2311.93	2.60127
2312.16	1.63466
2312.4	2.59909
2312.63	-0.293724
2312.86	2.60537
2313.1	-0.282223
2313.33	-1.23959
2313.56	-1.23297
2313.8	-1.22627
2314.03	-0.252857
2314.27	-0.244305
2314.5	-0.236979
2314.73	1.70278
2314.97	-2.16984
2315.2	-1.20454
2315.43	-0.239101
2315.67	-0.241888
2315.9	-2.18161
2316.14	-0.252062
2316.37	-0.252478
2316.6	2.64598
2316.84	3.61473
2317.07	-0.244923
2317.3	0.727928
2317.54	-0.233313
2317.77	3.62512
2318	-0.238325
2318.24	0.726778
2318.47	-1.20487
2318.71	-1.20563
2318.94	-0.240946
2319.17	2.65412
2319.41	2.65468
2319.64	1.69195
2319.87	-1.20041
2320.11	2.66119
2320.34	3.63039
2320.57	0.739914
2320.81	0.744925
2321.04	1.71585
2321.27	2.68781
2321.51	5.59384
2321.74	6.56943
2321.97	5.61092
2322.21	1.748
2322.44	2.71562
2322.67	1.752
2322.91	6.58956
2323.14	2.72541
2323.37	4.66276
2323.61	3.69838
2323.84	5.63326
2324.07	2.73348
2324.31	5.63022
2324.54	8.5242
2324.77	5.61883
2325.01	8.51317
2325.24	8.51013
2325.47	6.57618
2325.71	12.3647
2325.94	12.3603
2326.17	19.1096
2326.41	16.2099
2326.64	25.8487
2326.87	37.4113
2327.1	64.3992
2327.34	83.6653
2327.57	108.715
2327.8	111.617
2328.04	91.3785
2328.27	55.7199
2328.5	40.287
2328.74	26.7892
2328.97	19.0732
2329.2	16.1829
2329.44	10.4047
2329.67	9.44753
2329.9	6.5575
2330.13	5.5945
2330.37	5.59435
2330.6	0.780624
2330.83	5.59941
2331.07	0.788713
2331.3	1.75706
2331.53	1.76378
2331.77	2.72301
2332	0.795044
2332.23	-0.168615
2332.47	0.793915
2332.7	3.68184
2332.93	1.75585
2333.16	1.75575
2333.4	0.793488
2333.63	3.67989
2333.86	-3.05691
2334.09	3.67471
2334.33	2.71195
2334.56	1.7502
2334.79	2.71327
2335.02	-2.09402
2335.26	1.75527
2335.49	2.72032
2335.72	1.75976
2335.96	0.798021
2336.19	0.798883
2336.42	2.72306
2336.66	1.76277
2336.89	1.76374
2337.12	-2.08067
2337.35	-0.157457
2337.59	0.804556
2337.82	1.7669
2338.05	2.72906
2338.28	2.73042
2338.52	-0.150379
2338.75	4.65798
2338.98	-0.146275
2339.21	1.77743
2339.45	2.73884
2339.68	1.77725
2339.91	0.81506
2340.14	3.69588
2340.38	3.69305
2340.61	0.808517
2340.84	2.72429
2341.07	-0.159914
2341.31	3.6741
2341.54	0.795151
2341.77	2.71182
2342	1.75192
2342.24	2.71037
2342.47	1.7525
2342.7	-1.12177
2342.93	0.797485
2343.17	1.75698
2343.4	-0.159006
2343.63	1.76023
2343.86	-2.07109
2344.1	-1.11012
2344.33	-0.150223
2344.56	-0.149549
2344.79	0.808891
2345.02	-0.150606
2345.26	-0.153347
2345.49	-1.11246
2345.72	0.801714
2345.95	2.71766
2346.19	0.803122
2346.42	-0.153563
2346.65	2.71908
2346.88	-1.11031
2347.12	0.805954
2347.35	2.72298
2347.58	2.71573
2347.81	2.66109
2348.04	-1.10219
2348.28	-0.174103
2348.51	0.726896
2348.74	2.63721
2348.97	1.81988
2349.2	-0.855701
2349.44	0.822062
2349.67	2.50545
2349.9	0.778006
2350.13	0.837183
2350.37	-0.236992
2350.6	1.2921
2350.83	1.84007
2351.06	-0.249409
2351.29	1.58332
2351.53	1.55523
2351.76	-0.435148
2351.99	0.22352
2352.22	0.101299
2352.45	3.15388
2352.69	-0.478138
2352.92	0.448732
2353.15	-0.218365
2353.38	1.06772
2353.61	1.70942
2353.85	2.25437
2354.08	-0.0476913
2354.31	0.86853
2354.54	-0.272976
2354.77	1.76838
2355.01	1.39237
2355.24	-0.5858
2355.47	1.29621
2355.7	-0.912606
2355.93	1.10701
2356.17	0.052824
2356.4	-0.620331
2356.63	-0.0631924
2356.86	-0.348978
2357.09	1.40311
2357.32	1.44058
2357.56	2.2005
2357.79	-0.407515
2358.02	-0.646471
2358.25	1.69292
2358.48	0.277578
2358.71	-0.166636
2358.95	-0.796743
2359.18	-0.626383
2359.41	1.57794
2359.64	0.0635796
2359.87	-0.752377
2360.1	-1.61699
2360.34	1.6475
2360.57	0.826223
2360.8	3.1989
2361.03	0.719614
2361.26	0.332224
2361.49	0.0274963
2361.73	-1.06442
2361.96	1.99913
2362.19	2.90199
2362.42	0.410259
2362.65	0.978201
2362.88	0.157425
2363.11	0.695736
2363.35	1.69189
2363.58	-1.7858
2363.81	0.551468
2364.04	-1.1492
2364.27	-1.06628
2364.5	1.11559
2364.73	-0.63656
2364.97	-0.191837
2365.2	-0.758255
2365.43	0.0962391
2365.66	-0.938233
2365.89	-0.818508
2366.12	-0.325844
2366.36	-2.10936
2366.59	-0.53886
2366.82	-0.812811
2367.05	-0.857167
2367.28	-1.12585
2367.51	1.52085
2367.74	1.30989
2367.97	0.0590992
2368.2	1.03442
2368.44	-0.8375
2368.67	-0.91893
2368.9	-0.86834
2368.98	-1.21659
2369.22	-0.275801
2369.45	1.60752
2369.69	-1.2258
2369.92	-0.286295
2370.15	-0.289413
2370.39	-3.11923
2370.62	0.647707
2370.86	-1.23911
2371.09	-0.298754
2371.33	-3.12561
2371.56	2.52411
2371.79	2.52103
2372.03	-1.24747
2372.26	1.57419
2372.5	1.5718
2372.73	1.5704
2372.97	-0.312202
2373.2	-0.312792
2373.43	-0.315088
2373.67	1.56258
2373.9	0.619013
2374.14	-1.26413
2374.37	1.55374
2374.6	-0.329269
2374.84	0.60709
2375.07	-0.335714
2375.31	0.601992
2375.54	-1.27789
2375.77	-0.339437
2376.01	1.53766
2376.24	-2.22198
2376.48	2.46993
2376.71	-1.28696
2376.94	0.589281
2377.18	0.587505
2377.41	-0.353912
2377.65	2.45725
2377.88	0.578098
2378.11	-2.23921
2378.35	1.5087
2378.58	3.37979
2378.82	-0.374763
2379.05	2.43016
2379.28	1.48678
2379.52	-1.3268
2379.75	3.35278
2379.98	0.542107
2380.22	2.41272
2380.45	-0.397184
2380.69	1.47386
2380.92	-1.33501
2381.15	-0.399139
2381.39	-1.33492
2381.62	0.536663
2381.85	2.40683
2382.09	1.46984
2382.32	-2.27543
2382.56	0.530291
2382.79	0.528419
2383.02	-0.408506
2383.26	-1.34542
2383.49	-3.21798
2383.72	2.39537
2383.96	-1.34792
2384.19	-0.413534
2384.42	0.520222
2384.66	0.518232
2384.89	3.32106
2385.13	3.31683
2385.36	-3.23329
2385.59	1.43614
2385.83	-3.24248
2386.06	1.42518
2386.29	1.41854
2386.53	0.477863
2386.76	-0.461491
2386.99	-1.40137
2387.23	2.32507
2387.46	-1.4088
2387.69	1.38892
2387.93	0.455067
2388.16	-1.4122
2388.4	0.451195
2388.63	5.11188
2388.86	0.445143
2389.1	0.44348
2389.33	-0.491148
2389.56	1.37168
2389.8	0.437464
2390.03	-0.496456
2390.26	-1.42985
2390.5	0.434687
2390.73	-1.43084
2390.96	-1.43167
2391.2	-0.500113
2391.43	0.430492
2391.66	-2.37011
2391.9	0.424522
2392.13	0.421206
2392.36	2.28198
2392.59	-2.38692
2392.83	2.26429
2393.06	2.25548
2393.3	0.383699
2393.53	-1.48405
2393.76	0.372013
2394	1.29911
2394.23	2.22248
2394.46	-0.574484
2394.69	2.21455
2394.93	0.35556
2395.16	-0.570805
2395.39	0.391598
2395.63	0.392481
2395.86	-0.542995
2396.09	0.400061
2396.33	-0.5277
2396.56	-0.542395
2396.79	0.384502
2397.02	0.380774
2397.26	0.378254
2397.49	0.376169
2397.73	0.373819
2397.96	-1.49485
2398.19	-2.43064
2398.42	0.364325
2398.66	0.361408
2398.89	0.358315
2399.12	0.356422
2399.36	-2.44395
2399.59	-0.581333
2399.82	-1.51695
