#Acq. time (s)=	30
#Accumulations=	2
#Range (cm-¹)=	1200...2400
#Windows=	4
#Auto scanning=	Off
#Autofocus=	Off
#Macrospot=	Off
#AutoExposure=	Off
#Spike filter=	Multiple accum.
#Delay time (s)=	2
#Binning=	1
#Readout mode=	Signal
#DeNoise=	Off
#ICS correction=	On
#Dark correction=	Off
#Inst. Process=	Off
#Detector Gain=	Best Dynamic
#Detector ADC=	50 kHz HS
#Detector temperature (°C)=	-60.09
#Instrument=	LabRAM HR Evol
#Detector=	SIN-EM FIVIS
#Objective=	x100_VIS
#Grating=	1800 (450-850nm)
#ND Filter=	100%
#Laser=	532nm_Edge
#Hole=	49.98
#Temperature=	0
#Range=	Visible
#StageXY=	75x50mm Scan+
#StageZ=	Z motor
#X (µm)=	0
#Y (µm)=	0
#Z (µm)=	-293.2
#Full time(mm:ss)=	4:21
#Project=	21_11_04
#Sample=	BU19w
#Site=	
#Title=	BU19w-E-FF11b-FI09-V_1800 (450-850nm)_532nm_Edge_100%_x100_VIS_H50um_30sX2
#Remark=	
#Date=	04.11.2021 17:31
#Acquired=	04.11.2021 17:31:01
#Base:Fit=	16.12.2021 17:39:50
#Base:Fit=	16.12.2021 17:48:11
#Base:Sub=	16.12.2021 17:48:11
1200.19	0.241238
1200.46	2.33191
1200.74	2.26142
1201.02	4.33868
1201.3	4.26514
1201.57	5.27069
1201.85	3.06178
1202.13	5.17181
1202.41	2.99816
1202.69	2.92406
1202.96	0.705694
1203.24	1.70542
1203.52	2.72144
1203.8	2.65376
1204.08	5.83171
1204.35	1.47373
1204.63	3.56299
1204.91	4.57318
1205.19	2.36168
1205.47	3.37106
1205.74	4.38041
1206.02	2.17216
1206.3	2.10995
1206.58	5.26249
1206.85	3.06065
1207.13	1.93312
1207.41	0.806778
1207.69	-0.317366
1207.97	1.76793
1208.24	1.71165
1208.52	0.587214
1208.8	2.67214
1209.08	0.48317
1209.36	0.43322
1209.63	-0.686554
1209.91	3.53511
1210.19	0.273525
1210.46	-0.848404
1210.74	2.30113
1211.02	1.18021
1211.3	3.26096
1211.57	2.14013
1211.85	-1.1102
1212.13	-1.16051
1212.41	0.920193
1212.69	-1.25941
1212.96	-0.241577
1213.24	1.84101
1213.52	3.92466
1213.79	-2.50517
1214.07	-0.418108
1214.35	-2.58971
1214.63	-1.56745
1214.9	-0.545322
1215.18	-1.65225
1215.46	1.49676
1215.74	3.57799
1216.01	1.40134
1216.29	1.3525
1216.57	-2.94584
1216.85	0.197353
1217.12	-1.97189
1217.4	0.108536
1217.68	0.0656071
1217.95	0.0229683
1218.23	-1.0795
1218.51	1.00364
1218.79	-1.15746
1219.06	-3.31799
1219.34	3.00704
1219.62	0.846874
1219.89	-0.249706
1220.17	-0.286079
1220.45	2.85917
1220.73	-1.42123
1221	-0.39897
1221.28	3.80211
1221.56	-3.65766
1221.84	-1.58012
1222.11	1.55336
1222.39	-1.66555
1222.67	0.40864
1222.94	-0.691397
1223.22	-1.78739
1223.5	4.51166
1223.77	0.247602
1224.05	-4.01163
1224.33	0.176323
1224.61	0.143444
1224.88	-5.16525
1225.16	5.36434
1225.44	-0.99859
1225.71	5.30841
1225.99	-3.17031
1226.27	1.02115
1226.54	4.15434
1226.82	3.06285
1227.1	6.18108
1227.37	4.02263
1227.65	1.87399
1227.93	1.8297
1228.21	3.88456
1228.48	1.74345
1228.76	1.7376
1229.03	2.81843
1229.31	0.701895
1229.59	0.654776
1229.86	2.72007
1230.14	3.74393
1230.42	2.66168
1230.69	1.55427
1230.97	0.455254
1231.25	0.432201
1231.52	2.50857
1231.8	0.380634
1232.08	-0.695963
1232.35	1.38043
1232.63	0.304186
1232.91	2.37992
1233.18	1.30625
1233.46	0.234129
1233.74	0.213114
1234.01	-2.95939
1234.29	2.276
1234.57	0.154444
1234.84	2.2364
1235.12	0.114637
1235.4	0.0954247
1235.67	3.22933
1235.95	2.15502
1236.23	1.07948
1236.5	5.25913
1236.78	2.07878
1237.06	2.05015
1237.33	0.971518
1237.61	-1.15551
1237.88	-3.28131
1238.16	1.93729
1238.44	0.864056
1238.71	-2.30408
1238.99	-1.27708
1239.27	-2.3459
1239.54	-1.31718
1239.82	0.760366
1240.1	1.79064
1240.37	-0.322746
1240.65	-0.33919
1240.92	-3.50137
1241.2	-1.42562
1241.48	1.69764
1241.75	-1.4647
1242.03	1.66407
1242.3	-0.447706
1242.58	-3.60391
1242.86	0.574072
1243.13	-0.491447
1243.41	-0.506098
1243.68	-0.520275
1243.96	0.511042
1244.24	-1.60213
1244.51	-2.66781
1244.79	-3.73588
1245.06	0.435093
1245.34	0.411339
1245.62	6.67179
1245.89	0.374929
1246.17	1.40593
1246.44	2.43968
1246.72	-0.715475
1247	1.36228
1247.27	1.34863
1247.55	4.46995
1247.82	-1.82943
1248.1	0.247416
1248.38	0.234417
1248.65	0.223747
1248.93	3.35011
1249.2	1.24385
1249.48	-1.90603
1249.75	-0.873001
1250.03	-0.89035
1250.31	2.22857
1250.58	1.16684
1250.86	0.106306
1251.13	0.0912628
1251.41	0.076292
1251.69	1.10562
1251.96	0.0463982
1252.24	0.0315514
1252.51	0.0165138
1252.79	-3.12794
1253.06	-2.09568
1253.34	1.02639
1253.61	-2.11055
1253.89	-4.20408
1254.17	4.14245
1254.44	-2.13071
1254.72	0.993408
1254.99	-0.0588703
1255.27	-0.0683537
1255.54	3.05528
1255.82	4.09234
1256.09	-0.0908642
1256.37	1.99218
1256.65	3.02864
1256.92	5.1069
1257.2	3.00702
1257.47	7.1739
1257.75	6.11963
1258.02	6.10959
1258.3	5.05294
1258.57	5.04135
1258.85	3.99179
1259.13	-1.23244
1259.4	8.16643
1259.67	2.94024
1259.95	8.14795
1260.23	5.00033
1260.5	4.98535
1260.78	9.14586
1261.05	6.00628
1261.33	11.2322
1261.6	13.3498
1261.88	18.6316
1262.15	15.4565
1262.43	24.7946
1262.7	21.6026
1262.98	23.7038
1263.25	24.7828
1263.53	20.6331
1263.8	16.4949
1264.08	17.5226
1264.35	14.3634
1264.63	4.94825
1264.9	10.1706
1265.18	3.88912
1265.45	5.97214
1265.73	1.78912
1266	8.05724
1266.28	4.92257
1266.55	2.83354
1266.83	5.97289
1267.1	4.93129
1267.38	4.93586
1267.66	2.84885
1267.93	4.95277
1268.2	1.81407
1268.48	7.05295
1268.75	2.86356
1269.03	3.91104
1269.31	5.99859
1269.58	5.98856
1269.85	2.83599
1270.13	1.78136
1270.4	2.81968
1270.68	8.04636
1270.95	6.99539
1271.23	0.712513
1271.5	0.713905
1271.78	1.76469
1272.05	5.95889
1272.33	0.729866
1272.6	3.87704
1272.88	1.78646
1273.15	4.93623
1273.43	0.747746
1273.7	8.09336
1273.98	4.94887
1274.25	3.89896
1274.53	3.89705
1274.8	2.84819
1275.07	5.99789
1275.35	4.95256
1275.62	6.00677
1275.9	2.86316
1276.17	7.06692
1276.45	8.12153
1276.72	4.97586
1277	4.98222
1277.27	7.09024
1277.54	8.14764
1277.82	10.2558
1278.1	11.315
1278.37	11.3228
1278.64	10.277
1278.92	13.4353
1279.19	14.4851
1279.47	14.4816
1279.74	19.7371
1280.02	26.0486
1280.29	28.1563
1280.56	40.7888
1280.84	49.2266
1281.11	73.4539
1281.39	101.88
1281.66	143.989
1281.94	198.757
1282.21	288.244
1282.49	359.737
1282.76	400.472
1283.03	440.116
1283.31	415.893
1283.58	343.309
1283.86	278.711
1284.13	166.281
1284.41	122.058
1284.68	78.8243
1284.95	51.3996
1285.23	38.7528
1285.5	27.1817
1285.78	29.2988
1286.05	15.6028
1286.32	21.9192
1286.6	14.5503
1286.87	13.496
1287.15	10.3342
1287.42	11.3834
1287.69	12.436
1287.97	10.3342
1288.24	9.28514
1288.52	10.3437
1288.79	7.19378
1289.06	5.09595
1289.34	6.15704
1289.61	4.05946
1289.89	6.17279
1290.16	7.22598
1290.43	6.17285
1290.71	5.12167
1290.98	4.07122
1291.26	5.12713
1291.53	3.02241
1291.8	-0.132656
1292.08	-0.127932
1292.35	8.29725
1292.62	0.927828
1292.9	4.0933
1293.17	3.05553
1293.45	2.01466
1293.72	6.24738
1293.99	-0.0781078
1294.27	4.14455
1294.54	2.03652
1294.82	2.04877
1295.09	9.45134
1295.36	-0.0289631
1295.64	2.10461
1295.91	4.22859
1296.18	1.06253
1296.46	-1.04744
1296.73	4.23737
1297.01	-1.04669
1297.28	2.12208
1297.55	0.00801659
1297.83	0.00798988
1298.1	2.1281
1298.37	-1.03947
1298.65	2.12889
1298.92	0.0185566
1299.19	3.18676
1299.47	2.13732
1299.74	3.202
1300.02	1.09661
1300.29	2.15708
1300.56	2.16048
1300.84	0.0533524
1301.11	1.11613
1301.38	1.12507
1301.65	-0.979509
1301.93	0.0829887
1302.2	2.20084
1302.47	-4.13284
1302.75	-0.960754
1303.02	0.0973721
1303.29	0.0995026
1303.57	2.2162
1303.84	2.2217
1304.12	1.17086
1304.39	1.17473
1304.66	1.17657
1304.94	0.121651
1305.21	2.23247
1305.48	4.34215
1305.75	1.17694
1306.03	4.34266
1306.3	2.23738
1306.57	-0.920164
1306.85	1.19622
1307.12	0.147259
1307.39	1.20716
1307.67	1.21347
1307.94	1.21898
1308.21	-0.885248
1308.49	-0.877302
1308.76	0.186607
1309.03	4.41629
1309.31	-1.90613
1309.58	0.211235
1309.85	2.3265
1310.13	-0.834324
1310.4	3.39313
1310.67	-0.820986
1310.94	-1.86938
1311.22	-5.02878
1311.49	0.257431
1311.76	1.3231
1312.04	0.275969
1312.31	1.3391
1312.58	-0.769314
1312.85	0.289928
1313.13	2.40677
1313.4	0.299408
1313.67	-0.751005
1313.95	-0.744255
1314.22	-0.736292
1314.49	-2.83911
1314.76	1.39315
1315.04	-1.76559
1315.31	0.355789
1315.58	-0.692333
1315.86	0.368933
1316.13	-1.73814
1316.4	-0.676359
1316.67	-0.670231
1316.95	-1.71878
1317.22	-0.653257
1317.49	-4.87031
1317.77	0.419287
1318.04	-0.629808
1318.31	3.603
1318.58	0.440086
1318.86	1.50241
1319.13	1.50815
1319.4	-0.597841
1319.67	0.466375
1319.95	-0.583614
1320.22	-1.63513
1320.49	0.480381
1320.76	3.64934
1321.04	0.481638
1321.31	0.482693
1321.58	-0.570688
1321.85	-2.67829
1322.13	2.59949
1322.4	-0.560715
1322.67	1.55096
1322.94	0.50231
1323.22	-0.543222
1323.49	0.51899
1323.76	0.525803
1324.03	1.5872
1324.31	1.59377
1324.58	2.65629
1324.85	2.66174
1325.12	0.552315
1325.4	-3.66564
1325.67	-3.67118
1325.94	2.63997
1326.21	1.58947
1326.48	-0.506145
1326.76	-0.487215
1327.03	-0.469202
1327.3	-1.50815
1327.57	-0.439386
1327.85	-1.47798
1328.12	-0.408482
1328.39	0.659815
1328.66	-2.49996
1328.93	0.673117
1329.21	0.681057
1329.48	2.79707
1329.75	-1.41759
1330.02	3.86031
1330.3	0.6989
1330.57	-1.40813
1330.84	-3.51518
1331.11	-4.56925
1331.38	0.696192
1331.66	3.85498
1331.93	-0.35458
1332.2	1.75019
1332.47	-0.354324
1332.74	0.697182
1333.01	-2.45568
1333.29	0.698317
1333.56	2.80018
1333.83	-1.39952
1334.1	-0.34745
1334.37	-1.39455
1334.65	-0.34161
1334.92	1.76019
1335.19	0.714399
1335.46	-2.42848
1335.73	-1.3754
1336.01	0.726393
1336.28	-1.36584
1336.55	0.736206
1336.82	0.741814
1337.09	0.74757
1337.37	3.89624
1337.64	0.752689
1337.91	-2.38592
1338.18	0.761116
1338.45	0.764589
1338.72	-2.3704
1339	1.82541
1339.27	2.88177
1339.54	4.98502
1339.81	-0.243166
1340.08	0.812937
1340.35	1.86831
1340.63	0.82782
1340.9	-3.35438
1341.17	-0.206871
1341.44	-1.24888
1341.71	2.94232
1341.98	1.89775
1342.26	-0.193508
1342.53	0.8552
1342.8	0.860807
1343.07	-0.178684
1343.34	-4.35471
1343.61	0.882231
1343.88	-0.155418
1344.16	-0.148146
1344.43	-1.18875
1344.7	1.95177
1344.97	-2.22741
1345.24	1.95405
1345.51	-0.133595
1345.79	1.95424
1346.06	0.907358
1346.33	2.99561
1346.6	-0.133457
1346.87	-2.21775
1347.14	-0.129517
1347.41	4.04458
1347.68	0.92267
1347.95	1.97093
1348.23	-2.19201
1348.5	0.938381
1348.77	3.02547
1349.04	1.98709
1349.31	-0.0920238
1349.58	0.953188
1349.86	3.03902
1350.13	4.08264
1350.4	0.962635
1350.67	0.965612
1350.94	2.00912
1351.21	3.05249
1351.48	-0.060503
1351.75	-0.0519238
1352.02	5.15937
1352.3	1.01281
1352.57	-2.09587
1352.84	4.16613
1353.11	4.19807
1353.38	4.2107
1353.65	3.1475
1353.92	0.00376129
1354.19	-3.11682
1354.46	2.08877
1354.73	0.0165215
1355.01	-4.13877
1355.28	2.10197
1355.55	3.16031
1355.82	4.2011
1356.09	4.20574
1356.36	1.09532
1356.63	0.0627995
1356.9	-0.970093
1357.17	1.11155
1357.44	1.11582
1357.71	0.0818138
1357.99	4.23694
1358.26	0.0903416
1358.53	0.0933323
1358.8	4.2465
1359.07	0.102839
1359.34	1.14499
1359.61	6.32836
1359.88	7.36515
1360.15	4.257
1360.42	0.117981
1360.69	-0.911003
1360.96	4.27611
1361.23	3.24674
1361.5	3.25315
1361.78	6.36427
1362.05	3.26328
1362.32	0.162727
1362.59	3.27684
1362.86	4.32268
1363.13	1.22839
1363.4	5.38165
1363.67	4.35663
1363.94	6.43458
1364.21	5.40464
1364.48	3.33784
1364.75	6.44715
1365.02	5.41353
1365.29	8.52005
1365.56	5.4172
1365.83	1.28114
1366.11	4.38619
1366.38	4.38621
1366.65	1.2855
1366.92	5.42496
1367.19	4.39828
1367.46	3.37639
1367.73	4.41936
1368	7.52999
1368.27	12.7086
1368.54	25.1251
1368.81	26.1707
1369.08	19.9753
1369.35	15.8424
1369.62	7.57641
1369.89	3.44555
1370.16	3.44783
1370.43	6.5519
1370.7	5.52084
1370.97	6.55344
1371.24	3.4547
1371.51	4.48492
1371.78	7.57797
1372.05	7.57682
1372.32	2.42347
1372.59	1.39692
1372.86	4.49383
1373.13	5.52924
1373.4	8.62586
1373.67	2.44917
1373.94	4.51597
1374.21	5.55225
1374.48	6.58758
1374.75	4.53356
1375.02	5.57343
1375.29	9.70365
1375.56	7.65151
1375.83	6.62725
1376.1	9.71798
1376.37	7.65821
1376.64	6.62582
1376.91	7.65723
1377.18	8.69907
1377.45	9.7454
1377.72	8.73623
1377.99	10.8209
1378.26	11.872
1378.53	14.9756
1378.8	11.8879
1379.07	11.8913
1379.34	12.9245
1379.61	9.83233
1379.88	13.9398
1380.15	11.8674
1380.42	12.8878
1380.69	15.9782
1380.96	11.8718
1381.23	15.9807
1381.5	13.9155
1381.77	15.9613
1382.04	14.9284
1382.31	15.9486
1382.58	24.1527
1382.85	24.1467
1383.12	27.2207
1383.39	25.1687
1383.66	30.3
1383.93	43.6383
1384.2	48.7815
1384.47	58.0327
1384.74	83.719
1385.01	118.654
1385.28	146.418
1385.55	229.615
1385.82	333.393
1386.09	520.39
1386.36	791.608
1386.62	1054.49
1386.89	992.401
1387.16	730.508
1387.43	438.057
1387.7	242.918
1387.97	153.223
1388.24	89.8995
1388.51	81.8234
1388.78	56.1821
1389.05	45.9387
1389.32	26.4323
1389.59	31.549
1389.86	27.4057
1390.13	23.3201
1390.4	20.2336
1390.67	22.2811
1390.94	18.1883
1391.21	11.0166
1391.47	16.1385
1391.74	14.0884
1392.01	11.0173
1392.28	9.99615
1392.55	11.0235
1392.82	13.0749
1393.09	11.0322
1393.36	12.0604
1393.63	7.97208
1393.9	10.0243
1394.17	9.00674
1394.44	7.99032
1394.71	9.02658
1394.97	5.96759
1395.24	5.97788
1395.51	10.0803
1395.78	9.06246
1396.05	7.02004
1396.32	7.02404
1396.59	4.98153
1396.86	6.00672
1397.13	7.03302
1397.4	8.06155
1397.66	6.02386
1397.93	6.03353
1398.2	10.1359
1398.47	6.05279
1398.74	10.1552
1399.01	9.14402
1399.28	7.10749
1399.55	9.16354
1399.82	6.10131
1400.09	4.06598
1400.35	4.07831
1400.62	9.20736
1400.89	6.14296
1401.16	3.07998
1401.43	8.21129
1401.7	7.20572
1401.97	8.2542
1402.24	6.22536
1402.5	7.26921
1402.77	8.31012
1403.04	7.29367
1403.31	7.29923
1403.58	7.29698
1403.85	6.27063
1404.12	15.5134
1404.39	7.31009
1404.65	10.3909
1404.92	12.4439
1405.19	12.4453
1405.46	11.4219
1405.73	13.475
1406	11.4291
1406.27	14.5102
1406.54	20.6695
1406.8	20.68
1407.07	30.9421
1407.34	30.9525
1407.61	47.3676
1407.88	48.4041
1408.15	47.3904
1408.42	47.4033
1408.68	43.3141
1408.95	34.0953
1409.22	31.029
1409.49	21.8063
1409.76	13.6043
1410.03	14.6296
1410.29	13.6014
1410.56	10.5245
1410.83	10.5254
1411.1	5.40492
1411.37	9.50732
1411.64	5.41745
1411.9	8.5034
1412.17	4.42027
1412.44	3.42366
1412.71	2.42849
1412.98	3.46539
1413.25	3.44311
1413.51	2.41036
1413.78	5.50439
1414.05	7.58138
1414.32	2.46007
1414.59	5.54691
1414.86	2.47452
1415.12	-1.62499
1415.39	4.54355
1415.66	2.49899
1415.93	6.61593
1416.2	-0.563751
1416.47	0.472622
1416.73	2.53656
1417	0.491484
1417.27	4.61034
1417.54	0.508095
1417.81	4.62575
1418.07	2.57917
1418.34	5.66932
1418.61	2.59444
1418.88	1.57304
1419.15	4.65973
1419.41	0.552444
1419.68	1.58286
1419.95	2.61285
1420.22	3.64189
1420.49	2.61748
1420.75	-0.458359
1421.02	4.67971
1421.29	4.68937
1421.56	0.597769
1421.83	2.6641
1422.09	3.70815
1422.36	1.67202
1422.63	2.73047
1422.9	1.72219
1423.17	1.63315
1423.43	3.70068
1423.7	1.64391
1423.97	1.63027
1424.24	5.7515
1424.5	5.75361
1424.77	0.665255
1425.04	2.70413
1425.31	3.75042
1425.58	2.73183
1425.84	3.76295
1426.11	2.73854
1426.38	1.71456
1426.65	0.690344
1426.91	2.7408
1427.18	-0.335548
1427.45	3.76298
1427.72	2.74298
1427.98	0.701422
1428.25	-2.36274
1428.52	3.78909
1428.79	4.82205
1429.06	0.735067
1429.32	3.8184
1429.59	1.78142
1429.86	0.769062
1430.12	3.85468
1430.39	1.81903
1430.66	0.809616
1430.93	0.821812
1431.2	1.85716
1431.46	-0.190067
1431.73	1.86429
1432	1.86626
1432.26	3.92175
1432.53	1.86895
1432.8	-6.33219
1433.07	3.91438
1433.33	-0.18391
1433.6	0.843287
1433.87	-0.173981
1434.14	-1.18083
1434.4	-1.17322
1434.67	2.93293
1434.94	-0.13476
1435.21	1.92066
1435.47	-0.123114
1435.74	-0.117756
1436.01	-2.1616
1436.28	2.96551
1436.54	3.99438
1436.81	1.95078
1437.08	1.95668
1437.34	-0.0874176
1437.61	1.96712
1437.88	0.951508
1438.15	4.03388
1438.41	1.99315
1438.68	-0.0484715
1438.95	2.00889
1439.21	2.01922
1439.48	-1.04423
1439.75	-0.00832748
1440.01	1.02547
1440.28	5.1346
1440.55	3.09095
1440.82	-1.0043
1441.08	2.07639
1441.35	4.13048
1441.62	3.11219
1441.88	0.0454159
1442.15	0.0536213
1442.42	1.08724
1442.69	1.09084
1442.95	3.14471
1443.22	0.0728226
1443.49	-1.97246
1443.75	3.15942
1444.02	1.11854
1444.29	-1.94631
1444.55	3.19412
1444.82	2.17809
1445.09	1.15672
1445.35	4.23889
1445.62	1.16603
1445.89	3.22219
1446.15	0.150024
1446.42	1.1805
1446.69	2.21062
1446.95	-1.8868
1447.22	3.24372
1447.49	4.27367
1447.76	1.20571
1448.02	1.2161
1448.29	1.22563
1448.56	1.23267
1448.82	-1.83873
1449.09	3.29353
1449.35	3.29671
1449.62	0.223587
1449.89	0.227413
1450.15	0.232126
1450.42	2.28679
1450.69	0.241629
1450.96	1.27095
1451.22	3.32456
1451.49	1.27962
1451.75	-1.78909
1452.02	-0.758692
1452.29	2.32158
1452.55	2.32942
1452.82	-1.76101
1453.09	-1.75372
1453.35	0.301601
1453.62	-0.718256
1453.89	0.312077
1454.15	-2.75586
1454.42	1.34908
1454.68	1.35422
1454.95	0.334673
1455.22	-0.681931
1455.48	-0.673153
1455.75	0.35894
1456.02	0.364553
1456.28	1.39319
1456.55	1.3957
1456.82	-1.67408
1457.08	-0.644739
1457.35	1.40899
1457.61	0.390352
1457.88	-1.65221
1458.15	3.47671
1458.41	-1.63841
1458.68	2.46642
1458.95	0.424152
1459.21	-0.594461
1459.48	0.435202
1459.74	0.439972
1460.01	0.444593
1460.28	0.448965
1460.54	-0.571508
1460.81	-2.61594
1461.08	0.459816
1461.34	1.48668
1461.61	-2.60522
1461.87	1.49147
1462.14	2.5166
1462.41	2.51796
1462.67	0.473515
1462.94	-0.547606
1463.2	-2.58965
1463.47	-1.56012
1463.74	-1.5467
1464	-1.53405
1464.27	0.525059
1464.53	-1.50701
1464.8	1.53514
1465.07	-1.54811
1465.33	-1.55295
1465.6	-0.522396
1465.86	0.508276
1466.13	0.508541
1466.39	-1.53452
1466.66	-1.52672
1466.93	3.58017
1467.19	0.523975
1467.46	1.54862
1467.72	-1.5063
1467.99	0.539356
1468.26	-0.475342
1468.52	1.56901
1468.79	-1.48689
1469.05	0.556202
1469.32	-2.50082
1469.58	1.5784
1469.85	-1.47638
1470.12	-3.51062
1470.38	0.568878
1470.65	-0.445074
1470.91	2.61302
1471.18	0.578089
1471.44	0.581749
1471.71	-1.45005
1471.97	0.591619
1472.24	1.61507
1472.51	0.601946
1472.77	-1.43041
1473.04	2.64416
1473.3	-0.406324
1473.57	1.63271
1473.83	1.63743
1474.1	-0.391811
1474.36	0.633871
1474.63	0.640162
1474.9	-2.40761
1475.16	-3.42055
1475.43	1.6718
1475.69	-0.360489
1475.96	-1.37361
1476.22	1.68249
1476.49	-2.38435
1476.75	0.670025
1477.02	-1.35928
1477.29	-0.337215
1477.55	1.7017
1477.81	-2.36294
1478.08	-2.36038
1478.34	1.70869
1478.61	0.694923
1478.88	-1.33503
1479.14	-0.316864
1479.41	-1.33082
1479.67	1.71677
1479.94	0.700516
1480.2	-0.313587
1480.47	-2.34028
1480.73	1.72172
1481	0.711061
1481.26	0.718752
1481.53	-2.31697
1481.79	0.736399
1482.06	1.76057
1482.32	2.78332
1482.59	-1.27166
1482.85	-0.249071
1483.12	-0.242838
1483.38	-0.237558
1483.65	0.780285
1483.92	-0.237581
1484.18	-0.245049
1484.44	2.7785
1484.71	5.79823
1484.97	3.76635
1485.24	0.744638
1485.5	0.779345
1485.77	1.80471
1486.03	0.793346
1486.3	-1.23607
1486.56	1.81568
1486.83	1.82078
1487.09	-0.205278
1487.36	0.809443
1487.62	0.812046
1487.89	1.82649
1488.15	2.83961
1488.42	-0.195812
1488.68	0.818609
1488.95	-0.189758
1489.21	1.83753
1489.48	1.84195
1489.74	-4.22285
1490.01	-0.171862
1490.27	-0.169233
1490.54	1.85501
1490.8	-1.17616
1491.07	1.86091
1491.33	-4.20045
1491.6	-2.17291
1491.86	-0.145367
1492.12	-0.140896
1492.39	1.88539
1492.65	2.90123
1492.92	0.884005
1493.18	-0.122753
1493.45	-0.117912
1493.71	1.90956
1493.98	1.91631
1494.24	-3.13263
1494.51	-0.0958805
1494.77	-0.0943642
1495.04	0.91547
1495.3	-1.10572
1495.56	0.914921
1495.83	0.916988
1496.09	-0.0897369
1496.36	2.94101
1496.62	0.925863
1496.89	-1.08763
1497.15	1.94466
1497.42	0.939667
1497.68	-4.10141
1497.94	1.95913
1498.21	-0.0537434
1498.47	-0.0480309
1498.74	0.967213
1499	-2.05455
1499.27	-0.0290489
1499.53	-0.0227966
1499.8	-1.02697
1500.06	-0.012743
1500.32	-1.01773
1500.59	-0.00396347
1500.85	-1.01118
1501.12	1.00996
1501.38	-1.00422
1501.64	-3.01798
1501.91	1.02264
1502.17	4.05177
1502.44	-4.01783
1502.7	-1.99756
1502.97	0.021553
1503.23	4.05758
1503.5	0.0303249
1503.76	1.04498
1504.02	2.05902
1504.29	3.07224
1504.55	0.0506706
1504.81	0.0535107
1505.08	-1.96076
1505.34	1.06139
1505.61	-1.96025
1505.87	1.06623
1506.13	0.0630817
1506.4	0.0701656
1506.66	-0.931074
1506.93	1.08994
1507.19	1.09539
1507.46	0.0919495
1507.72	-1.91975
1507.98	2.11503
1508.25	-0.902323
1508.51	1.11833
1508.77	2.13087
1509.04	-1.89526
1509.3	0.125172
1509.57	5.17219
1509.83	-0.871344
1510.09	1.14562
1510.36	0.139156
1510.62	1.14689
1510.89	0.139168
1511.15	1.14224
1511.41	1.13698
1511.68	1.13269
1511.94	1.12806
1512.21	-0.882374
1512.47	0.122524
1512.73	1.12745
1513	-0.878742
1513.26	-1.87816
1513.52	-0.86311
1513.79	1.15552
1514.05	2.16456
1514.31	0.157774
1514.58	1.16171
1514.84	-0.845682
1515.1	1.16155
1515.37	0.157324
1515.63	-3.85513
1515.9	0.158905
1516.16	0.162064
1516.42	-0.837393
1516.69	1.17161
1516.95	1.17605
1517.21	3.18654
1517.48	2.19081
1517.74	-0.810492
1518	2.20391
1518.27	1.20682
1518.53	3.2189
1518.79	0.215626
1519.06	1.2247
1519.32	-0.776863
1519.58	0.230225
1519.85	2.23964
1520.11	3.24676
1520.37	2.24961
1520.64	-0.753889
1520.9	0.255207
1521.16	0.25992
1521.43	-0.739912
1521.69	0.266266
1521.95	-0.734339
1522.22	-2.73778
1522.48	1.27654
1522.75	4.28525
1523.01	1.27554
1523.27	3.27756
1523.53	1.27348
1523.8	-0.728859
1524.06	-1.72859
1524.32	2.28025
1524.59	1.28504
1524.85	0.288774
1525.11	1.29607
1525.38	-0.700039
1525.64	4.31759
1525.9	0.318556
1526.17	0.325777
1526.43	0.330988
1526.69	-0.668085
1526.95	0.336634
1527.22	-1.66453
1527.48	1.34476
1527.74	-2.66049
1528.01	2.35149
1528.27	1.35212
1528.53	-1.65
1528.8	5.36529
1529.06	-2.64405
1529.32	0.363375
1529.58	1.36697
1529.85	-1.63288
1530.11	1.37802
1530.37	0.384373
1530.64	0.391977
1530.9	3.40424
1531.16	1.40425
1531.42	2.41
1531.69	1.4116
1531.95	2.41692
1532.21	3.42657
1532.48	-0.572651
1532.74	-0.562683
1533	-0.554363
1533.27	-2.55433
1533.53	0.460068
1533.79	0.46386
1534.05	0.466965
1534.32	0.469629
1534.58	-0.530771
1534.84	0.474348
1535.1	1.4756
1535.37	1.47187
1535.63	1.4711
1535.89	0.468811
1536.15	0.466791
1536.42	3.46701
1536.68	4.46661
1536.94	2.46601
1537.2	3.46787
1537.47	-0.530024
1537.73	0.469809
1537.99	-1.52948
1538.25	5.46993
1538.52	0.476593
1538.78	-0.512812
1539.04	0.502399
1539.31	2.52034
1539.57	2.53347
1539.83	0.541679
1540.09	0.552265
1540.36	4.57194
1540.62	1.56532
1540.88	0.562231
1541.14	-1.44076
1541.41	-2.44283
1541.67	1.56476
1541.93	2.56569
1542.19	-1.44025
1542.45	1.56347
1542.72	-0.438452
1542.98	0.561701
1543.24	0.559366
1543.5	-1.43996
1543.77	1.56487
1544.03	-0.429546
1544.29	-1.42186
1544.55	-1.41406
1544.81	1.5976
1545.08	-0.395082
1545.34	1.61485
1545.6	0.619665
1545.86	2.62754
1546.13	1.62933
1546.39	1.63459
1546.65	0.638681
1546.91	2.64893
1547.17	2.65321
1547.44	0.645954
1547.7	-3.36061
1547.96	-0.353432
1548.22	1.65821
1548.49	1.65864
1548.75	2.64375
1549.01	0.633451
1549.27	3.63762
1549.53	-2.34688
1549.79	6.69061
1550.06	3.71549
1550.32	-2.27966
1550.58	5.76128
1550.84	0.737803
1551.1	1.7459
1551.37	-0.26424
1551.63	5.76182
1551.89	0.755806
1552.15	0.762444
1552.41	-1.24424
1552.68	4.77325
1552.94	1.75663
1553.2	-1.25113
1553.46	2.76272
1553.72	-0.246532
1553.99	0.754866
1554.25	2.75619
1554.51	-2.25448
1554.77	0.752916
1555.03	-1.24771
1555.3	0.759716
1555.56	2.76834
1555.82	0.766785
1556.08	-1.23436
1556.34	4.77985
1556.6	-1.22558
1556.87	2.78597
1557.13	0.78587
1557.39	0.788074
1557.65	1.78846
1557.91	1.78718
1558.17	1.78531
1558.43	-0.218294
1558.7	1.78098
1558.96	1.77994
1559.22	0.77993
1559.48	3.77957
1559.74	0.781872
1560	-2.21457
1560.26	3.78399
1560.53	1.78798
1560.79	0.792271
1561.05	-0.2017
1561.31	0.80475
1561.57	2.81374
1561.83	1.82059
1562.1	-0.176413
1562.36	1.8261
1562.62	0.829
1562.88	3.83248
1563.14	0.834051
1563.4	6.83912
1563.66	0.848909
1563.93	0.857492
1564.19	-0.138689
1564.45	1.86262
1564.71	1.84825
1564.97	-0.180655
1565.23	1.77697
1565.49	-1.19357
1565.76	-0.142866
1566.02	0.869976
1566.28	5.85858
1566.54	1.86252
1566.8	0.882277
1567.06	5.89681
1567.32	-1.11022
1567.58	2.88562
1567.84	1.89163
1568.11	0.897243
1568.37	5.90066
1568.63	3.89993
1568.89	2.89722
1569.15	1.89855
1569.41	1.90252
1569.67	0.90745
1569.93	-0.088356
1570.19	1.91374
1570.45	2.91586
1570.72	-0.0800247
1570.98	3.9182
1571.24	-0.0782967
1571.5	1.9208
1571.76	-0.0748863
1572.02	2.92192
1572.28	-1.07248
1572.54	2.92207
1572.8	-0.0724201
1573.07	2.92231
1573.33	0.927734
1573.59	0.932215
1573.85	2.93538
1574.11	0.94598
1574.37	2.95083
1574.63	3.95776
1574.89	1.967
1575.15	0.973309
1575.41	1.97573
1575.67	1.97794
1575.94	0.980957
1576.2	-1.01736
1576.46	1.97669
1576.72	2.97125
1576.98	1.96936
1577.24	1.96624
1577.5	3.95822
1577.76	2.9588
1578.02	-1.02881
1578.28	-0.0294952
1578.54	1.96718
1578.8	1.9701
1579.06	2.9704
1579.32	2.9752
1579.58	2.9805
1579.85	1.98735
1580.11	1.99031
1580.37	0.994894
1580.63	2.98953
1580.89	1.99283
1581.15	-0.000528336
1581.41	0.995363
1581.67	0.995489
1581.93	2.98969
1582.19	1.99495
1582.45	1.00039
1582.71	3.99067
1582.97	2.00099
1583.23	2.00273
1583.49	0.0124607
1583.75	0.0158596
1584.01	1.01605
1584.27	1.01992
1584.53	4.01156
1584.79	-0.96672
1585.06	2.02364
1585.32	1.02966
1585.58	3.02165
1585.84	-2.95401
1586.1	1.02742
1586.36	0.0321293
1586.62	3.01824
1586.88	2.02403
1587.14	2.02542
1587.4	3.02247
1587.66	4.02082
1587.92	3.03034
1588.18	-1.94028
1588.44	0.0549908
1588.7	1.05519
1588.96	2.05547
1589.22	1.06392
1589.48	1.06684
1589.74	2.06563
1590	2.07002
1590.26	2.07488
1590.52	6.0619
1590.78	2.08067
1591.04	1.08691
1591.3	2.08408
1591.56	0.0928383
1591.82	4.07269
1592.08	5.06438
1592.34	3.07332
1592.6	2.07668
1592.86	2.07247
1593.12	3.06134
1593.38	1.06989
1593.64	0.0753422
1593.9	1.06968
1594.16	4.05268
1594.42	1.07816
1594.68	2.07728
1594.94	3.07611
1595.2	4.06776
1595.46	2.07812
1595.72	-0.899283
1595.98	2.08288
1596.24	2.08567
1596.5	1.09577
1596.76	3.08624
1597.02	4.08404
1597.28	3.09398
1597.54	2.10209
1597.8	2.10236
1598.06	2.10085
1598.32	1.10559
1598.58	4.0821
1598.84	3.08843
1599.1	4.0799
1599.36	5.07097
1599.62	4.07791
1599.88	3.08504
1600.14	1.10026
1600.4	2.08932
1600.66	4.06794
1600.92	3.07292
1601.17	4.05973
1601.43	4.0571
1601.69	3.06544
1601.95	2.07421
1602.21	0.0981636
1602.47	4.00575
1602.73	3.00992
1602.99	0.0889874
1603.25	3.85157
1603.51	1.0797
1603.77	2.93813
1604.03	0.0968685
1604.29	1.1552
1604.55	3.03769
1604.81	1.04995
1605.07	2.7894
1605.33	1.10044
1605.59	1.91353
1605.85	2.77547
1606.11	2.10283
1606.37	2.82408
1606.63	2.53669
1606.88	3.38204
1607.14	1.99311
1607.4	2.70099
1607.66	0.758852
1607.92	4.46943
1608.18	-0.497181
1608.44	1.42893
1608.7	6.1459
1608.96	-0.374165
1609.22	2.37661
1609.48	0.837278
1609.74	2.47141
1610	0.76749
1610.26	1.30428
1610.51	4.49176
1610.77	1.87485
1611.03	4.26175
1611.29	2.20016
1611.55	3.60473
1611.81	1.42844
1612.07	2.97832
1612.33	1.64819
1612.59	1.26759
1612.85	1.52763
1613.11	2.07905
1613.37	0.756893
1613.62	2.52547
1613.88	1.67859
1614.14	1.7733
1614.4	0.963869
1614.66	4.60666
1614.92	1.25409
1615.18	2.5741
1615.44	1.66313
1615.7	2.59283
1615.96	0.675453
1616.21	-0.309978
1616.47	0.510881
1616.73	2.57558
1616.99	3.12435
1617.25	2.95859
1617.51	2.23657
1617.77	-0.515601
1618.03	1.81859
1618.28	0.799461
1618.54	0.650057
1618.8	2.00617
1619.06	2.2566
1619.32	3.49806
1619.58	3.43286
1619.84	1.38666
1620.1	1.42439
1620.35	0.99493
1620.61	1.51065
1620.87	0.834427
1621.13	1.12172
1621.39	-0.0606976
1621.65	1.90791
1621.91	2.16209
1622.17	2.38393
1622.42	2.71303
1622.68	1.64285
1622.94	1.04088
1623.2	1.19129
1623.46	2.57999
1623.72	1.99901
1623.98	0.77985
1624.23	0.0235577
1624.49	0.711344
1624.75	1.72874
1625.01	1.89581
1625.27	1.89814
1625.53	1.54823
1625.79	1.52165
1626.04	1.68031
1626.3	0.0115852
1626.56	-0.840181
1626.82	0.32625
1627.08	-1.14929
1627.34	1.1475
1627.59	3.82393
1627.85	2.24143
1628.11	1.61432
1628.37	3.23975
1628.63	0.904383
1628.81	0.227505
1629.07	1.21307
1629.33	0.228306
1629.59	-0.755959
1629.85	3.18542
1630.12	-1.73968
1630.38	1.21473
1630.64	0.231558
1630.9	4.17467
1631.16	0.239014
1631.42	1.22913
1631.68	0.247435
1631.95	2.21994
1632.21	1.24241
1632.47	2.23614
1632.73	-2.69987
1632.99	2.22276
1633.25	1.23857
1633.51	-0.728098
1633.78	-0.724489
1634.04	2.23473
1634.3	1.25088
1634.56	1.25204
1634.82	2.23841
1635.08	0.267574
1635.34	3.22411
1635.6	0.26737
1635.87	3.22264
1636.13	0.266241
1636.39	1.25037
1636.65	3.21855
1636.91	1.24765
1637.17	0.263282
1637.43	0.263874
1637.69	3.21717
1637.95	2.23233
1638.21	0.264278
1638.48	-0.718466
1638.74	6.1734
1639	-0.715783
1639.26	1.25421
1639.52	1.25518
1639.78	-0.712535
1640.04	1.25916
1640.3	1.26366
1640.57	1.267
1640.83	-0.700962
1641.09	-0.701014
1641.35	1.26793
1641.61	2.25259
1641.87	3.2375
1642.13	1.26921
1642.39	2.2542
1642.65	-1.68235
1642.91	-0.696898
1643.17	1.27219
1643.44	1.27191
1643.7	0.287132
1643.96	-1.68231
1644.22	-0.698427
1644.48	0.286169
1644.74	2.2577
1645	1.2766
1645.26	1.27947
1645.52	7.18447
1645.78	2.26328
1646.04	0.294655
1646.31	2.26175
1646.57	1.27838
1646.83	2.2608
1647.09	-1.67354
1647.35	-1.67378
1647.61	0.294547
1647.87	1.27986
1648.13	2.26852
1648.39	2.27343
1648.65	-0.666951
1648.91	1.30215
1649.17	1.30207
1649.43	-0.667748
1649.69	2.28738
1649.95	0.326431
1650.21	0.330095
1650.47	1.31983
1650.74	0.338874
1651	1.32719
1651.26	0.343453
1651.52	1.32992
1651.78	1.33114
1652.04	-1.62337
1652.3	-1.62462
1652.56	2.31598
1652.82	1.33122
1653.08	3.30313
1653.34	1.33473
1653.6	1.33772
1653.86	2.32515
1654.12	1.34144
1654.38	2.32956
1654.64	4.30487
1654.9	1.3526
1655.16	1.35911
1655.42	0.379566
1655.68	0.384005
1655.94	1.37429
1656.21	-1.5847
1656.47	-0.596171
1656.73	-3.55719
1656.99	0.390556
1657.25	1.37676
1657.51	-0.597084
1657.77	3.3496
1658.03	2.36162
1658.29	0.386913
1658.55	2.35814
1658.81	0.383897
1659.07	1.36846
1659.33	1.3664
1659.59	-1.59229
1659.85	0.381778
1660.11	0.384935
1660.37	-1.58384
1660.63	2.36513
1660.89	2.36966
1661.15	-0.586597
1661.41	-0.583721
1661.67	2.3712
1661.93	0.399398
1662.19	1.41639
1662.45	0.437328
1662.71	5.37274
1662.97	-3.52137
1663.23	4.36322
1663.49	-1.5725
1663.75	0.414006
1664.01	1.4046
1664.27	1.40959
1664.53	0.431038
1664.79	1.41745
1665.05	-1.56785
1665.31	2.39078
1665.57	4.40156
1665.83	-2.5191
1666.09	2.42847
1666.35	3.35227
1666.61	1.38109
1666.87	3.38472
1667.13	2.39426
1667.39	0.419235
1667.65	0.417536
1667.91	-0.570528
1668.17	1.40539
1668.43	1.41689
1668.69	0.436641
1668.95	-0.549312
1669.21	3.40286
1669.47	-0.546882
1669.72	-0.549276
1669.98	0.442199
1670.24	-0.535543
1670.51	0.455437
1670.76	0.454292
1671.02	-0.534349
1671.28	0.453894
1671.54	3.42143
1671.8	0.457776
1672.06	2.43596
1672.32	3.4247
1672.58	0.459979
1672.84	0.461143
1673.1	2.43973
1673.36	2.44182
1673.62	2.44458
1673.88	2.44785
1674.14	4.42869
1674.4	-1.50313
1674.66	-0.510046
1674.92	-1.49708
1675.18	-1.49541
1675.44	-2.48465
1675.69	0.484553
1675.95	1.47569
1676.21	0.487397
1676.47	2.46777
1676.73	0.488335
1676.99	2.46709
1677.25	3.45532
1677.51	0.484507
1677.77	2.46001
1678.03	1.46749
1678.29	-1.50141
1678.55	1.4633
1678.81	1.46176
1679.07	0.472358
1679.33	1.45946
1679.59	2.44654
1679.84	1.45738
1680.1	1.45596
1680.36	-0.521376
1680.62	-1.51013
1680.88	3.42937
1681.14	0.465811
1681.4	0.466133
1681.66	2.44242
1681.92	0.467218
1682.18	-1.50812
1682.44	2.44329
1682.7	0.467507
1682.95	-2.49585
1683.21	0.468024
1683.47	3.43129
1683.73	2.4422
1683.99	1.45249
1684.25	1.45156
1684.51	-1.51137
1684.77	1.45097
1685.03	-1.5113
1685.29	-1.51097
1685.55	3.42689
1685.8	1.45293
1686.06	-0.519835
1686.32	-0.516772
1686.58	2.44852
1686.84	3.43662
1687.1	2.44741
1687.36	1.45787
1687.62	0.468726
1687.88	-0.520069
1688.14	2.44058
1688.39	0.463284
1688.65	1.44733
1688.91	1.44463
1689.17	1.44179
1689.43	-1.52097
1689.69	3.40744
1689.95	1.43658
1690.2	1.44008
1690.46	0.455763
1690.72	1.44405
1690.98	1.44503
1691.24	1.44774
1691.5	-2.49889
1691.76	-0.524964
1692.02	2.43482
1692.28	0.458355
1692.53	0.455435
1692.79	1.43796
1693.05	1.43328
1693.31	1.42815
1693.57	2.41113
1693.83	1.42203
1694.09	-0.551598
1694.34	1.41668
1694.6	-0.552723
1694.86	2.40385
1695.12	1.41979
1695.38	-0.549407
1695.64	1.42248
1695.89	1.42543
1696.15	0.441253
1696.41	-0.544671
1696.67	2.40981
1696.93	-1.53461
1697.19	3.38614
1697.45	2.39663
1697.7	1.40872
1697.96	-2.53122
1698.22	-3.5174
1698.48	-1.55079
1698.74	1.40037
1699	2.3843
1699.26	1.40146
1699.51	0.417618
1699.77	1.40143
1700.03	-0.569233
1700.29	0.414205
1700.55	0.413487
1700.81	0.41251
1701.06	1.39441
1701.32	-2.54218
1701.58	-0.578314
1701.84	0.401966
1702.1	2.36452
1702.35	1.37911
1702.61	3.34362
1702.87	2.36033
1703.13	0.393947
1703.39	1.37501
1703.65	2.35717
1703.9	-0.588518
1704.16	-0.586854
1704.42	1.37864
1704.68	0.395119
1704.94	-0.588172
1705.19	1.37706
1705.45	1.3763
1705.71	-0.591419
1705.97	-0.594771
1706.23	1.36535
1706.48	1.36096
1706.74	-0.60599
1707	1.35287
1707.26	2.3289
1707.52	-0.618777
1707.77	2.31728
1708.03	1.33113
1708.29	0.345279
1708.55	1.31974
1708.81	0.336968
1709.06	-0.644144
1709.32	-1.62398
1709.58	3.27061
1709.84	1.31304
1710.1	1.31363
1710.35	0.336451
1710.61	0.338514
1710.87	2.29864
1711.13	-0.638115
1711.39	-0.637174
1711.64	2.30098
1711.9	1.31882
1712.16	1.31299
1712.42	2.28439
1712.67	2.27617
1712.93	0.313987
1713.19	2.26202
1713.45	-1.65214
1713.71	2.25321
1713.96	0.297254
1714.22	3.22609
1714.48	-1.65856
1714.74	-0.681974
1714.99	1.27586
1715.25	0.300933
1715.51	-0.676783
1715.77	-2.63234
1716.02	1.27262
1716.28	-1.66127
1716.54	-1.66572
1716.8	2.23263
1717.05	1.24887
1717.31	-4.61006
1717.57	-0.716217
1717.83	-0.722427
1718.08	-0.727077
1718.34	0.243459
1718.6	-2.6792
1718.86	0.241665
1719.12	1.21468
1719.37	1.21337
1719.63	2.18921
1719.89	2.18883
1720.14	-0.734287
1720.4	4.12933
1720.66	3.15003
1720.92	1.20073
1721.17	0.224125
1721.43	-1.72476
1721.69	-0.756374
1721.95	0.211477
1722.2	2.15061
1722.46	1.17469
1722.72	3.11352
1722.98	4.08139
1723.23	-1.74706
1723.49	2.13719
1723.75	1.16392
1724	2.13397
1724.26	-0.782053
1724.52	-0.786673
1724.78	4.0569
1725.03	2.1104
1725.29	0.164759
1725.55	3.06858
1725.8	0.159674
1726.06	1.12988
1726.32	-2.74835
1726.58	1.12429
1726.83	2.08692
1727.09	-0.817968
1727.35	3.06005
1727.6	2.08901
1727.86	-1.78897
1728.12	0.138089
1728.38	0.11412
1728.63	0.09231
1728.89	1.05265
1729.15	-0.868384
1729.4	-0.861279
1729.66	-2.79149
1729.92	0.0977859
1730.18	2.02448
1730.43	0.0971775
1730.69	1.07703
1730.95	-0.85519
1731.2	-4.72121
1731.46	-1.82255
1731.72	-0.85747
1731.97	2.03957
1732.23	1.07099
1732.49	0.101883
1732.74	0.0978088
1733	0.0922117
1733.26	0.0851889
1733.51	1.04351
1733.77	2.00235
1734.03	0.0682325
1734.29	0.0626926
1734.54	0.0572166
1734.8	-1.87446
1735.06	-1.87845
1735.31	1.96925
1735.57	1.96656
1735.82	-0.922839
1736.08	1.96224
1736.34	0.035059
1736.6	-2.85385
1736.85	-0.932155
1737.11	0.0274763
1737.37	0.0249424
1737.62	0.0215893
1737.88	-2.86618
1738.14	0.975323
1738.39	0.0103979
1738.65	-0.954607
1738.91	-0.95952
1739.16	-0.965961
1739.42	-0.973104
1739.67	-0.0204611
1739.93	-0.0266981
1740.19	0.926823
1740.44	-1.95239
1740.7	2.83452
1740.96	1.87219
1741.21	-1.96249
1741.47	1.86523
1741.73	-0.0516682
1741.98	-0.052803
1742.24	-0.0547304
1742.5	-1.0139
1742.75	1.85656
1743.01	0.898634
1743.26	-1.01805
1743.52	-2.93542
1743.78	-0.0676432
1744.03	-1.02707
1744.29	0.885063
1744.55	0.88471
1744.8	0.884724
1745.06	2.79722
1745.32	0.882704
1745.57	-0.0764513
1745.83	-2.94859
1746.09	0.870826
1746.34	-1.04585
1746.6	-2.95996
1746.85	1.81072
1747.11	-0.102833
1747.37	1.80202
1747.62	0.845935
1747.88	-1.06375
1748.13	-1.06382
1748.39	-1.0635
1748.65	-0.108074
1748.9	-0.106395
1749.16	2.76094
1749.42	-0.10112
1749.67	-0.0977926
1749.93	-1.05009
1750.18	1.82009
1750.44	1.82063
1750.7	0.866475
1750.95	1.82199
1751.21	-0.0931358
1751.46	-0.0984669
1751.72	1.80698
1751.98	1.80272
1752.23	-0.111221
1752.49	-0.11526
1752.74	-2.02798
1753	-0.122409
1753.26	-0.125477
1753.51	0.825362
1753.77	2.72858
1754.02	0.817211
1754.28	1.76773
1754.53	2.71818
1754.79	-0.143814
1755.05	-2.05241
1755.3	-0.149624
1755.56	1.75174
1755.81	1.74685
1756.07	0.789331
1756.33	0.783468
1756.58	-0.173717
1756.84	0.773218
1757.09	0.770741
1757.35	-1.13317
1757.6	2.67309
1757.86	-1.12846
1758.12	-1.12773
1758.37	-1.12782
1758.63	1.72665
1758.88	-1.12807
1759.14	-0.176327
1759.39	0.774373
1759.65	-0.178856
1759.91	0.770784
1760.16	-1.13399
1760.42	0.7662
1760.67	1.71395
1760.93	1.71006
1761.18	-1.14546
1761.44	-0.196882
1761.69	0.752021
1761.95	0.752007
1762.21	1.70502
1762.46	0.755412
1762.72	2.65662
1762.97	1.70498
1763.23	-0.196366
1763.48	-2.09735
1763.74	0.756954
1763.99	-0.19005
1764.25	1.71767
1764.5	-1.13527
1764.76	1.72182
1765.02	-0.180951
1765.27	-0.180377
1765.53	1.72381
1765.78	-1.13286
1766.04	3.62621
1766.29	-1.13566
1766.55	0.767127
1766.8	0.766163
1767.06	-1.13937
1767.31	2.66446
1767.57	-0.192884
1767.82	-1.14684
1768.08	1.70637
1768.33	1.70322
1768.59	-1.1581
1768.84	0.734246
1769.1	0.724738
1769.36	0.720822
1769.61	-2.12751
1769.86	-1.17358
1770.12	3.57853
1770.38	0.728399
1770.63	0.729581
1770.89	1.68544
1771.14	0.739978
1771.4	-0.210299
1771.65	-0.209394
1771.91	-0.206773
1772.16	0.747519
1772.42	-0.202024
1772.67	0.751072
1772.93	-1.15081
1773.18	-0.197844
1773.44	-0.196755
1773.69	-2.09992
1773.95	-1.14753
1774.2	2.66128
1774.46	-0.192934
1774.71	1.71246
1774.97	2.66859
1775.22	-2.08778
1775.48	-1.13203
1775.73	0.775823
1775.99	-0.177619
1776.24	-0.179043
1776.5	-3.04111
1776.75	1.72125
1777.01	-0.186867
1777.26	-0.19021
1777.51	0.759109
1777.77	-0.196752
1778.03	3.60869
1778.28	2.65193
1778.53	-1.1604
1778.79	-0.21316
1779.04	1.68711
1779.3	-1.16661
1779.55	-2.11485
1779.81	2.64431
1780.06	0.741785
1780.32	1.69486
1780.57	1.69599
1780.83	-0.207928
1781.08	2.64875
1781.34	-1.15835
1781.59	2.65265
1781.85	0.750716
1782.1	-0.19868
1782.36	-0.196733
1782.61	0.757716
1782.86	1.71238
1783.12	0.761164
1783.37	0.763083
1783.63	1.71879
1783.88	0.768346
1784.14	2.67979
1784.39	-1.13412
1784.65	-0.1794
1784.9	-2.08816
1785.15	0.772729
1785.41	1.7245
1785.66	1.72278
1785.92	0.769096
1786.17	-1.13752
1786.43	3.6357
1786.68	-1.13219
1786.94	-3.03756
1787.19	2.69856
1787.44	0.798263
1787.7	-0.147389
1787.95	2.73261
1788.21	-0.132869
1788.46	-0.130325
1788.72	0.831628
1788.97	1.79535
1789.23	1.79895
1789.48	0.842472
1789.73	0.844529
1789.99	0.845965
1790.24	1.80415
1790.5	3.72046
1790.75	0.83738
1791	0.829494
1791.26	-0.130269
1791.51	0.82597
1791.77	0.82611
1792.02	-0.131386
1792.28	-2.04597
1792.53	0.829143
1792.78	2.74629
1793.04	-2.04426
1793.29	0.830695
1793.55	-1.08439
1793.8	-1.08386
1794.05	0.830904
1794.31	1.78664
1794.56	-0.12194
1794.82	-0.110627
1795.07	1.81568
1795.32	1.81936
1795.58	-0.0980406
1795.83	0.864879
1796.09	0.867839
1796.34	-0.0896339
1796.6	0.874162
1796.85	0.877003
1797.1	4.7241
1797.36	-1.04136
1797.61	1.84429
1797.86	0.884084
1798.12	1.84626
1798.37	2.80745
1798.63	-0.0786304
1798.88	0.880585
1799.13	-0.0837746
1799.39	-0.0873003
1799.64	1.83147
1799.9	-1.05354
1800.15	0.865791
1800.4	-2.01759
1800.66	1.82345
1800.91	-1.05877
1801.16	-2.97993
1801.42	1.82314
1801.67	-0.0970297
1801.93	1.82585
1802.18	2.78901
1802.43	1.83105
1802.69	2.79577
1802.94	-0.0847454
1803.19	-2.0057
1803.45	2.8036
1803.7	2.80439
1803.95	-1.04056
1804.21	-1.03789
1804.46	-0.0730801
1804.71	-1.03202
1804.97	0.897099
1805.22	1.86403
1805.48	-1.02212
1805.73	1.87041
1805.98	-1.98118
1806.24	-0.0522051
1806.49	1.87632
1806.74	0.912745
1807	0.912652
1807.25	0.912485
1807.5	-0.0512934
1807.76	-0.0512028
1808.01	0.912888
1808.26	-1.01459
1808.52	-0.050272
1808.77	0.914161
1809.02	-0.0495024
1809.28	-0.0489607
1809.53	0.915626
1809.79	1.88015
1810.04	0.915856
1810.29	-3.90597
1810.55	-1.01451
1810.8	2.84144
1811.05	1.87677
1811.3	-1.97975
1811.56	0.912507
1811.81	0.913416
1812.06	-1.0133
1812.32	0.91761
1812.57	-1.00867
1812.82	-0.0424118
1813.08	-0.0413342
1813.33	-3.89868
1813.58	0.9299
1813.84	0.934201
1814.09	1.90512
1814.34	0.944196
1814.6	-0.985129
1814.85	-1.94955
1815.1	2.88356
1815.36	0.951363
1815.61	0.952118
1815.86	-0.0138512
1816.12	1.9209
1816.37	-0.978992
1816.62	1.92034
1816.88	-0.983494
1817.13	1.90704
1817.38	-1.96027
1817.63	-3.89098
1817.89	-0.0245056
1818.14	3.84535
1818.39	-0.0190573
1818.64	-0.985816
1818.9	-0.018199
1819.15	-0.0162554
1819.4	1.91875
1819.66	1.92039
1819.91	-0.0113173
1820.16	2.89194
1820.42	-0.00778484
1820.67	-0.0062294
1820.92	-0.00398064
1821.18	0.966065
1821.43	0.968346
1821.68	0.970154
1821.93	0.971581
1822.19	-0.96341
1822.44	-0.96262
1822.69	-2.89822
1822.94	0.00526524
1823.2	2.90769
1823.45	-0.965884
1823.7	0.96996
1823.95	-0.964581
1824.21	-0.963331
1824.46	2.91055
1824.71	0.00768375
1824.96	1.94608
1825.22	0.0102625
1825.47	-1.92651
1825.72	-1.92666
1825.98	7.75844
1826.23	0.979453
1826.48	2.91694
1826.73	-0.95609
1826.99	0.982759
1827.24	0.015852
1827.49	-0.951612
1827.74	3.89253
1828	0.985151
1828.25	0.0143232
1828.5	-0.956629
1828.75	-1.92639
1829.01	3.88427
1829.26	1.94641
1829.51	1.9453
1829.76	-0.962058
1830.02	1.94098
1830.27	0.00280094
1830.52	0.00343418
1830.77	-1.93107
1831.03	0.97602
1831.28	4.85256
1831.53	0.0118418
1831.78	0.982756
1832.04	1.95415
1832.29	0.988955
1832.54	0.021719
1832.79	-0.947612
1833.04	1.96085
1833.3	0.0239925
1833.55	-1.91443
1833.8	0.995331
1834.05	-1.91827
1834.31	1.94833
1834.56	0.971656
1834.81	-0.00390148
1835.06	0.959561
1835.31	-1.94689
1835.57	-0.0114574
1835.82	-0.0164185
1836.07	2.01078
1836.32	-0.928203
1836.58	1.96086
1836.83	0.986856
1837.08	-2.90022
1837.33	-0.972352
1837.58	0.944176
1837.84	-3.89489
1838.09	1.90213
1838.34	-1.93406
1838.59	0.00944519
1838.85	0.983983
1839.1	-0.952175
1839.35	-0.94983
1839.6	0.0224762
1839.85	0.00505829
1840.11	-1.94035
1840.36	-0.0142803
1840.61	1.91121
1840.86	0.936673
1841.11	2.8608
1841.36	0.922709
1841.62	0.916662
1841.87	-0.0536098
1842.12	-1.02227
1842.37	1.87444
1842.62	1.87282
1842.88	-0.0542927
1843.13	1.87469
1843.38	-0.054657
1843.63	1.87296
1843.88	-2.94928
1844.14	-0.0537119
1844.39	-1.01845
1844.64	-1.02037
1844.89	-1.01966
1845.14	1.87559
1845.39	1.88339
1845.65	-1.0051
1845.9	0.933712
1846.15	-0.991068
1846.4	0.929443
1846.65	1.86842
1846.9	2.80601
1847.16	-0.0865822
1847.41	-2.00994
1847.66	0.88696
1847.91	-0.0718746
1848.16	-2.00518
1848.41	1.84341
1848.67	-2.00789
1848.92	-0.0855312
1849.17	-0.090045
1849.42	-1.05678
1849.67	-0.0997162
1849.92	1.81761
1850.18	1.81259
1850.43	0.847501
1850.68	1.80474
1850.93	0.841254
1851.18	3.72014
1851.43	-1.08277
1851.68	0.837337
1851.94	1.79769
1852.19	-0.122513
1852.44	-0.122375
1852.69	-0.122746
1852.94	-2.04388
1853.19	0.834657
1853.44	3.71068
1853.69	0.826612
1853.95	0.821212
1854.2	-0.141852
1854.45	-0.143766
1854.7	0.812362
1854.95	-1.10957
1855.2	0.802254
1855.45	-2.07388
1855.71	3.67222
1855.96	0.798276
1856.21	-1.11697
1856.46	0.798662
1856.71	0.798112
1856.96	1.75434
1857.21	0.795004
1857.46	0.793161
1857.72	0.790653
1857.97	-0.169666
1858.22	1.74068
1858.47	0.78019
1858.72	0.776321
1858.97	1.72842
1859.22	2.68218
1859.47	2.68255
1859.72	0.770667
1859.98	1.72865
1860.23	0.77634
1860.48	-0.17718
1860.73	0.782202
1860.98	-0.170953
1861.23	-1.1253
1861.48	-0.167511
1861.73	-1.12521
1861.98	0.786122
1862.24	1.73928
1862.49	1.73535
1862.74	-0.180668
1862.99	-3.05161
1863.24	3.63571
1863.49	-2.10065
1863.74	0.763116
1863.99	-0.194597
1864.24	-2.10708
1864.49	1.70944
1864.74	0.750527
1864.99	0.74579
1865.25	0.74041
1865.5	-0.219348
1865.75	1.68066
1866	-2.13753
1866.25	-1.19054
1866.5	0.707398
1866.75	1.65259
1867	-2.15837
1867.25	-0.259958
1867.5	1.63966
1867.75	-1.21391
1868	-1.21438
1868.25	-1.21346
1868.51	0.689218
1868.76	1.6399
1869.01	-2.16327
1869.26	-0.262552
1869.51	1.63806
1869.76	0.687111
1870.01	-2.16463
1870.26	-0.2639
1870.51	0.686595
1870.76	2.58757
1871.01	0.685786
1871.26	0.684265
1871.51	0.681643
1871.76	0.680352
1872.01	0.679145
1872.26	-0.273446
1872.52	1.62271
1872.77	-1.22695
1873.02	1.62101
1873.27	-0.278595
1873.52	-2.17866
1873.77	-2.18091
1874.02	0.662434
1874.27	-1.2382
1874.52	0.654869
1874.77	2.54659
1875.02	-2.19648
1875.27	0.640766
1875.52	-2.20883
1875.77	-0.319897
1876.02	1.56823
1876.27	-1.27314
1876.52	-1.27463
1876.77	1.55327
1877.02	2.48733
1877.27	0.579387
1877.52	0.600956
1877.77	-1.23262
1878.02	-3.15639
1878.27	-0.319588
1878.52	-1.26599
1878.78	0.644391
1879.02	0.650407
1879.27	-0.302576
1879.52	-0.306352
1879.78	-1.25299
1880.03	0.640382
1880.28	2.53841
1880.53	1.58758
1880.78	-0.306394
1881.03	1.57952
1881.28	-0.32022
1881.53	0.617643
1881.78	0.609236
1882.03	-0.344296
1882.28	1.53323
1882.53	0.58486
1882.78	-0.354387
1883.03	0.67995
1883.28	2.4939
1883.53	-1.31441
1883.78	-0.367818
1884.03	-0.360418
1884.28	-1.30893
1884.53	-0.359237
1884.78	2.47873
1885.03	-3.17931
1885.28	-1.28885
1885.53	0.606666
1885.78	-1.27773
1886.03	2.5024
1886.28	0.611485
1886.53	-0.338218
1886.78	1.54634
1887.03	-0.344187
1887.28	-0.347423
1887.52	-1.29389
1887.78	-2.2405
1888.03	2.4668
1888.27	0.577024
1888.52	0.572335
1888.77	1.50973
1889.02	1.50802
1889.27	1.50787
1889.52	0.566819
1889.77	-0.371941
1890.02	2.45743
1890.27	-2.24741
1890.52	-2.24602
1890.77	-0.362437
1891.02	-2.24642
1891.27	-2.24613
1891.52	-1.30468
1891.77	0.578743
1892.02	0.578451
1892.27	-0.364838
1892.52	-0.367604
1892.77	-3.19589
1893.02	-1.32156
1893.27	-0.38766
1893.52	0.553194
1893.77	1.4941
1894.02	-0.390136
1894.27	0.547518
1894.52	0.547331
1894.76	-1.33029
1895.02	1.49033
1895.26	-1.32607
1895.51	2.43554
1895.76	-0.38097
1896.01	1.50262
1896.26	-0.373775
1896.51	0.569962
1896.76	-2.24883
1897.01	2.45627
1897.26	-3.18626
1897.51	0.576945
1897.76	3.39834
1898.01	0.575215
1898.26	-0.367338
1898.51	0.569804
1898.75	-0.373425
1899.01	1.50411
1899.25	0.563463
1899.5	3.38034
1899.75	-2.25716
1900	0.561323
1900.25	-0.376509
1900.5	0.565497
1900.75	-1.31003
1901	2.45321
1901.25	-0.362477
1901.5	-2.23906
1901.75	4.34881
1902	-0.350112
1902.25	-0.349541
1902.49	-1.29062
1902.74	0.589514
1902.99	1.52883
1903.24	-0.352399
1903.49	0.587699
1903.74	-0.352386
1903.99	3.40872
1904.24	-0.351773
1904.49	-0.351822
1904.74	-0.35147
1904.98	1.52924
1905.23	-1.29111
1905.48	-0.355665
1905.73	1.51951
1905.98	1.51804
1906.23	0.577673
1906.48	-1.30122
1906.73	-4.11841
1906.98	0.578151
1907.23	2.45804
1907.47	-0.355779
1907.72	1.52656
1907.97	1.52868
1908.22	0.591092
1908.47	2.47325
1908.72	-2.22198
1908.97	0.601894
1909.22	-1.27345
1909.47	-1.26807
1909.71	-2.20317
1909.96	-0.314969
1910.21	-0.309465
1910.46	2.51998
1910.71	-0.301995
1910.96	0.642306
1911.21	0.643722
1911.46	-1.23953
1911.7	-0.297923
1911.95	-1.23974
1912.2	-0.297249
1912.45	1.58739
1912.7	-0.295343
1912.95	1.59011
1913.2	-1.23204
1913.45	-0.284244
1913.69	0.664204
1913.94	-1.21703
1914.19	1.6163
1914.44	-0.265565
1914.69	-2.14853
1914.94	-0.258571
1915.18	-0.256895
1915.43	1.63073
1915.68	-2.144
1915.93	3.51737
1916.18	0.684942
1916.43	-1.20382
1916.68	2.56659
1916.92	-0.26362
1917.17	1.62138
1917.42	0.678675
1917.67	0.680418
1917.92	-0.258902
1918.17	-2.14057
1918.42	-1.19241
1918.66	-0.243282
1918.91	-0.237209
1919.16	-0.22936
1919.41	1.66623
1919.66	-3.99923
1919.91	0.726678
1920.15	0.725318
1920.4	0.72844
1920.65	1.67908
1920.9	-0.206199
1921.15	1.68797
1921.39	-1.14551
1921.64	-0.197653
1921.89	0.748977
1922.14	-0.197205
1922.39	-0.198755
1922.64	3.58176
1922.89	2.63573
1923.13	-0.20048
1923.38	-1.14613
1923.63	2.6328
1923.88	2.63042
1924.13	3.57424
1924.37	0.740546
1924.62	0.742467
1924.87	0.745921
1925.12	-0.194473
1925.37	0.757022
1925.61	1.70822
1925.86	0.767879
1926.11	-2.06511
1926.36	-0.16655
1926.61	0.784144
1926.86	1.73452
1927.1	-1.10297
1927.35	0.79416
1927.6	-3.93902
1927.85	0.800012
1928.1	-1.09266
1928.34	-0.14192
1928.59	-0.138876
1928.84	1.76048
1929.09	-0.130481
1929.33	-1.07262
1929.58	1.77784
1929.83	-1.06221
1930.08	1.7896
1930.33	-1.05262
1930.57	2.74682
1930.82	-0.0999813
1931.07	-0.100396
1931.32	0.847827
1931.57	0.846692
1931.81	1.79443
1932.06	-0.104639
1932.31	-1.05478
1932.56	1.79209
1932.8	-0.106637
1933.05	0.844705
1933.3	0.851167
1933.55	0.860945
1933.79	-1.97708
1934.04	-1.01222
1934.29	-0.0468283
1934.54	-1.93929
1934.79	-1.92993
1935.03	1.89185
1935.28	2.85222
1935.53	-1.92702
1935.78	2.83957
1936.02	-0.0197229
1936.27	-0.0207415
1936.52	2.83496
1936.77	2.83149
1937.01	-1.93237
1937.26	0.921991
1937.51	-1.93551
1937.76	1.86959
1938	-1.93569
1938.25	-0.977124
1938.5	2.83399
1938.75	-0.971197
1938.99	0.93742
1939.24	-0.0119247
1939.49	-0.00817394
1939.74	0.946332
1939.98	0.95197
1940.23	0.00419331
1940.48	0.970315
1940.73	-0.931697
1940.97	2.88598
1941.22	-0.932269
1941.47	-0.936861
1941.72	0.962317
1941.96	1.92551
1942.21	0.0355215
1942.46	0.0389795
1942.71	0.0401983
1942.95	0.0342894
1943.2	0.0284901
1943.45	1.93282
1943.7	0.0374327
1943.94	1.95047
1944.19	-0.90894
1944.44	2.91582
1944.68	0.0558167
1944.93	1.97192
1945.18	1.02169
1945.42	1.02652
1945.67	0.0746355
1945.92	1.99071
1946.17	1.99376
1946.41	1.03942
1946.66	0.0836782
1946.91	1.99607
1947.16	-0.873174
1947.4	0.0839825
1947.65	0.0850382
1947.9	1.04221
1948.14	-0.870087
1948.39	1.04452
1948.64	4.8745
1948.89	-1.81626
1949.13	-0.85525
1949.38	1.06388
1949.62	0.112408
1949.87	-2.75277
1950.12	-1.78755
1950.37	-0.82291
1950.61	2.06094
1950.86	-2.72711
1951.11	2.07726
1951.35	0.163772
1951.6	-0.792171
1951.85	-1.74897
1952.1	-1.74582
1952.34	-1.74487
1952.59	3.06215
1952.83	1.1454
1953.08	2.10209
1953.33	-0.784447
1953.58	3.04537
1953.82	-0.799805
1954.07	1.1107
1954.32	0.146799
1954.56	-0.811958
1954.81	0.147013
1955.06	0.150467
1955.3	0.156307
1955.55	-4.62923
1955.8	0.176569
1956.04	0.182348
1956.29	2.10854
1956.54	2.113
1956.78	4.03931
1957.03	2.12333
1957.28	0.206163
1957.52	0.209593
1957.77	-1.70976
1958.02	0.21474
1958.26	1.17773
1958.51	1.17733
1958.76	0.214583
1959	2.13607
1959.25	0.214756
1959.5	2.13485
1959.74	2.13329
1959.99	0.211067
1960.23	0.209573
1960.48	1.16786
1960.73	0.206321
1960.98	2.12466
1961.22	1.16477
1961.47	-0.752731
1961.71	4.04803
1961.96	0.21094
1962.21	1.17272
1962.45	3.09443
1962.7	-0.74324
1962.95	1.17845
1963.19	0.220342
1963.44	4.06277
1963.69	0.225739
1963.93	1.18872
1964.18	2.14979
1964.42	2.14989
1964.67	1.19115
1964.92	0.231723
1965.16	-1.68698
1965.41	-4.56514
1965.66	0.240891
1965.9	2.16724
1966.15	1.21134
1966.39	-0.707
1966.64	-1.6654
1966.89	2.18026
1967.13	-0.701754
1967.38	3.14601
1967.63	-0.697494
1967.87	-0.695507
1968.12	1.22797
1968.36	2.1888
1968.61	3.14783
1968.86	-0.699116
1969.1	2.17891
1969.35	3.13478
1969.59	2.17138
1969.84	-4.54968
1970.09	1.20824
1970.33	3.12543
1970.58	1.20522
1970.82	-1.67321
1971.07	0.245071
1971.32	0.245137
1971.56	1.20716
1971.81	2.16928
1972.05	-3.58479
1972.3	3.13162
1972.55	0.253309
1972.79	2.16993
1973.04	2.16716
1973.28	4.0827
1973.53	-0.711483
1973.78	1.20561
1974.02	0.247827
1974.27	1.20774
1974.51	0.251125
1974.76	-1.66348
1975.01	-0.701569
1975.25	1.21982
1975.5	0.264236
1975.74	0.26707
1975.99	1.22849
1976.23	1.23032
1976.48	1.2316
1976.73	0.273058
1976.97	-0.685987
1977.22	-0.686501
1977.46	1.23013
1977.71	1.22867
1977.95	4.10355
1978.2	2.18569
1978.45	0.26901
1978.69	-0.688134
1978.94	-0.686366
1979.18	0.273407
1979.43	-0.683153
1979.67	1.23541
1979.92	2.19326
1980.17	0.274585
1980.41	1.2314
1980.66	1.23139
1980.9	0.272087
1981.15	0.271771
1981.39	-0.685803
1981.64	1.23048
1981.88	-2.59984
1982.13	-0.685776
1982.37	0.27044
1982.62	-0.689384
1982.87	1.22117
1983.11	1.21898
1983.36	-2.60761
1983.6	1.21885
1983.85	0.261941
1984.09	-0.6948
1984.34	3.13033
1984.58	2.17206
1984.83	2.16853
1985.08	2.168
1985.32	0.257975
1985.56	2.15238
1985.81	-1.64068
1986.06	0.215228
1986.3	0.298194
1986.55	2.0992
1986.79	1.20465
1987.04	0.202789
1987.28	2.77598
1987.53	-0.0469913
1987.77	-1.56769
1988.02	2.61434
1988.26	2.02976
1988.51	0.331268
1988.75	-1.49206
1989	1.29212
1989.24	1.76634
1989.49	0.698565
1989.73	2.08168
1989.98	0.789496
1990.22	0.216382
1990.47	-0.717609
1990.72	-0.496571
1990.96	-0.712205
1991.2	4.00543e-005
1991.45	0.244766
1991.7	0.940291
1991.94	1.34438
1992.19	0.3642
1992.43	0.584525
1992.68	0.868729
1992.92	-0.446322
1993.17	-0.55003
1993.41	0.399552
1993.66	0.283009
1993.9	-0.0961494
1994.15	0.0379601
1994.39	-0.664886
1994.63	0.451542
1994.88	0.515158
1995.13	1.29933
1995.37	1.64903
1995.61	0.611343
1995.86	1.03695
1996.11	0.485003
1996.35	1.38343
1996.59	1.63441
1996.84	0.826268
1997.08	1.12368
1997.33	-1.00792
1997.57	-0.206674
1997.82	0.349846
1998.06	-0.392511
1998.31	0.682184
1998.55	-0.00622368
1998.8	1.30656
1999.04	0.81015
1999.29	0.877283
1999.53	0.424529
1999.78	0.116092
2000.02	-0.147422
2000.27	0.495852
2000.51	-0.123405
2000.76	0.507616
2001	1.10703
2001.24	0.931977
2001.49	0.63347
2001.73	-0.806126
2001.98	-0.662323
2002.22	-0.225172
2002.47	-0.184733
2002.71	0.515344
2002.96	0.9367
2003.2	-1.051
2003.45	0.136071
2003.69	1.12088
2003.93	0.351778
2004.18	-1.06902
2004.42	0.215074
2004.67	-0.142373
2004.91	0.0721588
2005.16	-1.16074
2005.4	-0.47287
2005.65	-0.591776
2005.89	-0.412787
2006.13	1.13789
2006.38	2.89746
2006.62	-0.621313
2006.87	-0.810417
2007.11	-1.04254
2007.36	1.74026
2007.6	0.294075
2007.81	1.11793
2008.06	0.169243
2008.31	1.11009
2008.56	0.163818
2008.8	0.160045
2009.05	-3.61541
2009.3	0.153292
2009.55	0.150546
2009.79	0.147917
2010.04	1.08677
2010.29	1.08711
2010.53	1.08774
2010.78	0.146585
2011.03	0.147378
2011.28	-1.73558
2011.52	1.08997
2011.77	2.032
2012.02	2.03188
2012.27	1.08963
2012.51	-1.73682
2012.76	-2.68239
2013.01	-1.74636
2013.26	-0.809232
2013.5	1.06593
2013.75	1.05954
2014	-2.70416
2014.24	0.107481
2014.49	-0.831216
2014.74	0.109301
2014.99	-1.76448
2015.23	-3.63879
2015.48	1.05824
2015.73	2.93347
2015.97	-0.812341
2016.22	-2.68231
2016.47	2.01935
2016.71	-0.800384
2016.96	1.07753
2017.21	-0.804386
2017.46	0.131101
2017.7	1.0646
2017.95	0.12056
2018.2	1.0541
2018.44	0.111255
2018.69	0.105977
2018.94	-0.835365
2019.18	-0.83645
2019.43	0.0989723
2019.68	1.03595
2019.93	0.0999975
2020.17	-0.836332
2020.42	-1.77229
2020.67	0.103098
2020.91	1.97828
2021.16	1.97926
2021.41	-0.830483
2021.65	0.105599
2021.9	-0.832085
2022.15	-1.77014
2022.4	1.03519
2022.64	-0.839852
2022.89	1.96479
2023.14	1.96182
2023.38	-0.846133
2023.63	-2.71804
2023.88	1.01933
2024.12	-1.78865
2024.37	1.00975
2024.62	-1.79587
2024.86	0.0677366
2025.11	-1.80209
2025.36	-1.80485
2025.6	0.989432
2025.85	0.0606842
2026.1	0.0683117
2026.34	1.9474
2026.59	0.0930691
2026.84	1.97753
2027.08	0.114417
2027.33	-1.7593
2027.57	-1.76784
2027.82	0.0833302
2028.07	0.0571289
2028.32	0.103099
2028.56	1.0812
2028.81	3.86629
2029.06	1.06637
2029.3	-0.82874
2029.55	-1.77786
2029.79	1.00911
2030.04	2.87098
2030.29	-0.865363
2030.53	-0.853789
2030.78	0.0866308
2031.03	-1.7803
2031.27	-2.71236
2031.52	0.0891142
2031.77	1.96154
2032.01	-2.70021
2032.26	0.107649
2032.5	0.113569
2032.75	0.118335
2033	-0.812057
2033.24	-0.806506
2033.49	2.93454
2033.74	0.122203
2033.98	1.04442
2034.23	-0.835756
2034.48	-0.835684
2034.72	0.104235
2034.97	1.9784
2035.21	-0.812395
2035.46	-0.801349
2035.71	0.141833
2035.95	1.07419
2036.2	0.133277
2036.45	2.00621
2036.69	0.139996
2036.94	-0.794353
2037.18	0.140667
2037.43	-0.794928
2037.68	-1.73067
2037.92	0.137512
2038.17	-0.798552
2038.41	-0.799988
2038.66	2.93531
2038.91	-1.73717
2039.15	3.86467
2039.4	2.92715
2039.64	2.92282
2039.89	-1.74691
2040.14	-0.816688
2040.38	-0.819272
2040.63	-0.821366
2040.87	-0.822945
2041.12	0.109348
2041.37	-1.75528
2041.61	1.97171
2041.86	1.03877
2042.1	1.03562
2042.35	0.104343
2042.6	-0.826651
2042.84	1.03952
2043.09	0.113336
2043.33	-1.74424
2043.58	-0.80486
2043.83	-0.802668
2044.07	1.06289
2044.32	1.99177
2044.56	-0.812499
2044.81	0.105216
2045.05	1.99898
2045.3	-2.66514
2045.55	-0.772805
2045.79	-0.7493
2046.04	2.97139
2046.28	0.153846
2046.53	-1.72227
2046.78	0.146982
2047.02	0.141634
2047.27	1.99465
2047.51	0.128947
2047.76	-1.73381
2048	-0.800018
2048.25	-0.798143
2048.5	1.0708
2048.74	1.07445
2048.99	0.146031
2049.23	4.81768
2049.48	1.09169
2049.72	1.0968
2049.97	2.03626
2050.22	1.1052
2050.46	1.10649
2050.71	-1.69669
2050.95	-1.69898
2051.2	-2.6355
2051.44	1.10028
2051.69	1.10176
2051.93	1.10482
2052.18	1.10652
2052.42	-2.62696
2052.67	0.178724
2052.91	0.182723
2053.16	1.12296
2053.41	-1.67473
2053.65	-2.60681
2053.9	2.07255
2054.14	-0.732647
2054.39	1.13854
2054.63	-0.732351
2054.88	-0.733183
2055.12	0.199442
2055.37	0.198625
2055.62	0.198456
2055.86	3.00218
2056.11	-1.67276
2056.35	-0.738091
2056.6	1.13212
2056.84	-0.735833
2057.09	-0.733839
2057.33	0.203794
2057.58	-1.66345
2057.82	1.14554
2058.07	-1.6563
2058.31	4.89773
2058.56	-2.58494
2058.8	0.225715
2059.05	0.227307
2059.29	2.10139
2059.54	-0.706767
2059.78	-0.707939
2060.03	3.03396
2060.27	-1.6457
2060.52	-0.707252
2060.76	1.16775
2061.01	-0.702517
2061.25	-0.701304
2061.5	1.17225
2061.74	-1.63538
2061.99	1.17557
2062.24	2.1146
2062.48	0.244596
2062.73	-0.688716
2062.97	2.12527
2063.22	0.254012
2063.46	4.00521
2063.7	0.258224
2063.95	-2.55204
2064.19	0.26281
2064.44	3.07874
2064.68	-4.41909
2064.93	-0.662371
2065.18	1.21923
2065.42	-1.5923
2065.66	-1.58909
2065.91	0.291308
2066.15	0.292277
2066.4	1.23428
2066.64	2.1757
2066.89	-1.57949
2067.13	1.24157
2067.38	-0.634345
2067.62	1.24774
2067.87	-0.629724
2068.11	5.01127
2068.36	1.25507
2068.6	-1.56525
2068.85	3.13279
2069.09	-0.631064
2069.34	0.301886
2069.58	1.24009
2069.83	1.24278
2070.07	1.25141
2070.31	-3.44067
2070.56	1.26966
2070.8	2.2072
2071.05	1.26215
2071.29	0.345592
2071.54	-0.593111
2071.78	0.347419
2072.03	3.17176
2072.27	0.34705
2072.52	2.22905
2072.76	0.346766
2073.01	-0.595145
2073.25	-0.593763
2073.5	1.29035
2073.74	1.29196
2073.98	0.352775
2074.23	0.356501
2074.47	0.361417
2074.72	0.367615
2074.96	-0.567575
2075.21	0.383986
2075.45	0.389638
2075.69	0.392611
2075.94	-0.550522
2076.18	0.394257
2076.43	2.28058
2076.67	0.389887
2076.92	1.3295
2077.16	-1.506
2077.41	0.379455
2077.65	1.32529
2077.9	-0.557724
2078.14	2.27432
2078.38	1.333
2078.63	1.33605
2078.87	0.397356
2079.12	-3.37304
2079.36	2.29711
2079.61	-1.47833
2079.85	-1.47572
2080.09	2.30624
2080.34	1.36148
2080.58	2.30516
2080.83	1.3596
2081.07	-1.47483
2081.32	1.35962
2081.56	1.35982
2081.8	-0.528211
2082.05	2.30812
2082.29	0.419432
2082.54	-0.524992
2082.78	-0.524937
2083.02	2.30966
2083.27	0.41959
2083.51	-1.4698
2083.76	-0.524414
2084	-1.46911
2084.24	-1.46847
2084.49	2.31232
2084.73	-0.522327
2084.98	1.36811
2085.22	-2.41167
2085.47	-0.51965
2085.71	0.430159
2085.95	-1.45582
2086.2	1.38492
2086.44	0.440912
2086.69	0.44333
2086.93	2.33896
2087.17	1.3941
2087.42	-0.498137
2087.66	-1.44399
2087.9	1.39603
2088.15	-0.495819
2088.39	-1.44125
2088.64	-3.33347
2088.88	0.45603
2089.12	0.458901
2089.37	1.41101
2089.61	0.464902
2089.85	1.41336
2090.1	-2.37464
2090.34	0.469339
2090.59	-0.476207
2090.83	-0.474264
2091.07	2.37105
2091.32	-3.31215
2091.56	-0.463214
2091.8	-0.458105
2092.05	1.44497
2092.29	2.40041
2092.54	-1.3931
2092.78	1.46019
2093.02	-1.38555
2093.27	-0.431627
2093.51	-1.37893
2093.75	-2.32699
2094	-1.37544
2094.24	-0.424623
2094.49	0.525501
2094.73	0.524323
2094.97	2.4227
2095.22	2.41975
2095.46	-0.432978
2095.7	-0.434408
2095.95	-0.435237
2096.19	-3.28549
2096.43	1.46355
2096.68	2.41104
2096.92	1.45807
2097.16	0.505804
2097.41	-0.444619
2097.65	-0.445214
2097.89	-0.446093
2098.14	3.3488
2098.38	2.39979
2098.62	0.501193
2098.87	0.500423
2099.11	-1.39809
2099.36	-2.34714
2099.6	1.44921
2099.84	0.500892
2100.08	-0.447184
2100.33	2.40261
2100.57	2.407
2100.81	-2.33786
2101.06	2.41259
2101.3	0.514009
2101.54	-0.435821
2101.79	0.51386
2102.03	-2.33549
2102.28	-0.436936
2102.52	-3.28818
2102.76	1.45651
2103	2.40443
2103.25	-0.444011
2103.49	0.504653
2103.73	0.505161
2103.98	-0.442518
2104.22	0.509386
2104.46	1.46143
2104.71	1.46392
2104.95	2.41711
2105.19	1.47107
2105.44	0.523615
2105.68	-2.32599
2105.92	-2.32473
2106.17	-0.422873
2106.41	-0.422036
2106.65	0.53024
2106.89	-0.420445
2107.14	3.38039
2107.38	-0.4253
2107.62	-0.429272
2107.87	1.46662
2108.11	-3.2865
2108.35	1.45887
2108.59	0.508305
2108.84	-1.3897
2109.08	-0.435675
2109.32	4.31629
2109.57	-1.3834
2109.81	-0.433379
2110.05	-3.2834
2110.3	1.46648
2110.54	1.4665
2110.78	1.46626
2111.02	0.514946
2111.27	-2.33671
2111.51	2.41054
2111.75	1.45982
2112	-1.38899
2112.24	0.512103
2112.48	-1.38615
2112.72	-0.434441
2112.97	0.519821
2113.21	-0.427778
2113.45	-0.426594
2113.7	-1.37842
2113.94	2.42175
2114.18	-0.429484
2114.42	4.32325
2114.67	3.37307
2114.91	2.42137
2115.15	0.519182
2115.39	1.46809
2115.64	1.46654
2115.88	2.41256
2116.12	0.50974
2116.36	0.508431
2116.61	-0.442065
2116.85	0.5068
2117.09	-3.29097
2117.34	-0.444169
2117.58	-1.39604
2117.82	1.44912
2118.06	-1.40257
2118.3	-0.458185
2118.55	0.486894
2118.79	1.43166
2119.03	2.37603
2119.28	-0.471307
2119.52	-0.474128
2119.76	1.41883
2120	0.470502
2120.24	-1.42405
2120.49	-1.42189
2120.73	0.475043
2120.97	0.478579
2121.22	0.482264
2121.46	-0.462951
2121.7	1.43736
2121.94	2.38914
2122.18	-0.455506
2122.43	-0.453729
2122.67	0.49701
2122.91	1.44739
2123.15	1.44755
2123.4	1.44594
2123.64	1.4437
2123.88	2.38945
2124.12	1.43548
2124.36	2.37671
2124.61	0.472265
2124.85	0.465282
2125.09	1.40689
2125.33	1.40154
2125.58	2.34311
2125.82	4.23113
2126.06	-0.504128
2126.3	-0.507517
2126.55	-0.511026
2126.79	1.37709
2127.03	1.37546
2127.27	1.3744
2127.51	-0.517877
2127.76	0.425611
2128	0.424553
2128.24	-1.46614
2128.48	5.15046
2128.72	0.423047
2128.97	1.36663
2129.21	1.3653
2129.45	1.36426
2129.69	1.36312
2129.93	-2.418
2130.18	2.30503
2130.42	2.30294
2130.66	0.411057
2130.9	-1.48064
2131.14	-0.538773
2131.39	0.403134
2131.63	3.23387
2131.87	1.34309
2132.11	1.33931
2132.35	1.33613
2132.6	0.390769
2132.84	1.33404
2133.08	3.22174
2133.32	0.390998
2133.56	0.390744
2133.81	2.27884
2134.05	-0.552569
2134.29	-0.553335
2134.53	0.389595
2134.77	1.33247
2135.01	0.38753
2135.26	3.21607
2135.5	-0.561208
2135.74	3.2057
2135.98	0.371778
2136.22	1.31213
2136.47	-0.572521
2136.71	0.370196
2136.95	-0.572572
2137.19	0.371809
2137.43	1.3182
2137.67	0.372245
2137.91	1.30999
2138.16	-1.52125
2138.4	-0.575283
2138.64	3.20139
2138.88	-0.568217
2139.12	0.364493
2139.37	-0.582932
2139.61	-0.58584
2139.85	-0.588491
2140.09	0.351253
2140.33	0.349151
2140.57	-0.594286
2140.81	0.345814
2141.06	0.345913
2141.3	2.22461
2141.54	-0.603657
2141.78	-0.605075
2142.02	-2.48798
2142.26	-1.54398
2142.51	-0.600847
2142.75	4.12549
2142.99	1.28648
2143.23	-0.639616
2143.47	3.12635
2143.71	0.308479
2143.95	1.25442
2144.19	-0.62164
2144.44	-1.56036
2144.68	1.25008
2144.92	1.25274
2145.16	-0.627917
2145.4	0.310804
2145.64	1.24911
2145.88	1.24717
2146.13	4.06527
2146.37	0.303538
2146.61	1.24118
2146.85	4.05731
2147.09	1.23555
2147.33	1.233
2147.57	2.17008
2147.81	-1.58944
2148.06	2.16486
2148.3	3.10098
2148.54	-0.657929
2148.78	-0.661572
2149.02	-0.66599
2149.26	-1.61034
2149.5	0.261475
2149.74	-0.680776
2149.98	2.12802
2150.22	-0.686005
2150.47	-0.68663
2150.71	0.251637
2150.95	1.19106
2151.19	0.254722
2151.43	-0.681435
2151.67	0.257132
2151.91	0.258026
2152.15	-0.68267
2152.4	1.18992
2152.64	1.18631
2152.88	-2.56631
2153.12	3.05576
2153.36	1.17887
2153.6	2.11231
2153.84	0.23363
2154.08	-1.64549
2154.32	-0.71575
2154.56	3.95585
2154.8	-0.729335
2155.05	0.200347
2155.29	0.195118
2155.53	-1.67825
2155.77	2.0558
2156.01	-3.55164
2156.25	0.183855
2156.49	0.182869
2156.73	-1.68585
2156.97	-0.751115
2157.21	-2.61835
2157.45	1.12164
2157.69	-2.61544
2157.94	0.188524
2158.18	0.187697
2158.42	-1.6831
2158.66	1.11873
2158.9	1.11588
2159.14	0.178159
2159.38	2.04243
2159.62	1.10352
2159.86	-0.768488
2160.1	-0.772395
2160.34	1.09071
2160.58	1.08847
2160.82	-0.779417
2161.06	1.08449
2161.3	1.08237
2161.54	-2.65049
2161.79	-3.58412
2162.03	1.07984
2162.27	1.07877
2162.51	0.143576
2162.75	1.07355
2162.99	3.86883
2163.23	2.93365
2163.47	-0.798658
2163.71	2.928
2163.95	-1.73742
2164.19	-1.74156
2164.43	1.05073
2164.67	1.98312
2164.91	0.120062
2165.15	-0.812318
2165.39	1.98277
2165.63	0.118463
2165.87	0.115579
2166.12	-0.818403
2166.35	-1.75295
2166.6	-0.825218
2166.84	1.96556
2167.08	1.96052
2167.32	0.0930738
2167.56	1.94471
2167.8	-0.852918
2168.04	-0.85531
2168.28	1.00312
2168.52	-0.855977
2168.76	-0.854608
2169	-0.852242
2169.24	1.01192
2169.48	1.9477
2169.72	0.0914564
2169.96	0.0938654
2170.2	-0.837175
2170.44	0.0919905
2170.68	-0.842853
2170.92	1.94752
2171.16	0.0778666
2171.4	0.996475
2171.64	-2.72815
2171.88	-0.872496
2172.12	0.0534849
2172.36	-1.80744
2172.6	-1.80859
2172.84	-0.880528
2173.08	0.976801
2173.32	0.0481596
2173.56	0.978558
2173.8	-0.879528
2174.04	-0.879733
2174.28	0.97843
2174.52	0.97748
2174.76	0.0468674
2175	0.974363
2175.24	-3.67379
2175.48	0.97113
2175.72	1.89858
2175.96	0.96699
2176.2	0.963806
2176.44	-1.82466
2176.68	0.0324326
2176.92	0.0320129
2177.16	2.81823
2177.4	0.0303516
2177.64	0.029851
2177.88	-0.901762
2178.12	0.950793
2178.36	3.73244
2178.6	0.0175428
2178.84	1.87428
2179.08	1.8737
2179.32	0.944491
2179.56	0.0150652
2179.8	1.87107
2180.04	0.941149
2180.28	1.86761
2180.52	-0.919312
2180.76	1.86437
2181	0.93399
2181.24	0.931112
2181.48	0.928623
2181.72	0.926632
2181.96	-1.85996
2182.2	1.84916
2182.44	-0.93676
2182.68	-2.7955
2182.92	0.909758
2183.16	-0.0228081
2183.4	-0.0267935
2183.63	-0.03018
2183.87	-2.81282
2184.11	-0.0345583
2184.35	0.89187
2184.59	-0.0341482
2184.83	0.89285
2185.07	-1.88716
2185.31	-0.0324135
2185.55	-0.957702
2185.79	0.898457
2186.03	0.900777
2186.27	2.7601
2186.51	0.908628
2186.75	1.84095
2186.99	1.84498
2187.23	-3.72506
2187.47	-2.79684
2187.71	1.84419
2187.95	-0.0168009
2188.18	-0.0207663
2188.43	-2.80951
2188.66	-0.0297928
2188.9	-0.0349827
2189.14	-0.968523
2189.38	1.80832
2189.62	-2.82983
2189.86	-2.83101
2190.1	0.876227
2190.34	0.877137
2190.58	-0.0500736
2190.82	0.876341
2191.06	1.80367
2191.3	0.876932
2191.54	-0.049922
2191.78	-2.83195
2192.01	2.73351
2192.25	-0.0486441
2192.49	-0.0467634
2192.73	-1.90114
2192.97	-1.89976
2193.21	1.81595
2193.45	-0.0344791
2193.69	0.901029
2193.93	1.83464
2194.17	0.906816
2194.41	-0.954887
2194.64	0.901696
2194.88	1.8284
2195.12	-0.963205
2195.36	1.81977
2195.6	-0.0438299
2195.84	0.878163
2196.08	-1.9124
2196.32	1.79522
2196.56	-0.992326
2196.8	-1.92334
2197.04	3.63868
2197.27	1.78332
2197.51	1.7827
2197.75	-0.0714111
2197.99	1.7874
2198.23	0.862609
2198.47	-0.990168
2198.71	0.871492
2198.95	0.875143
2199.19	-1.90832
2199.42	0.884171
2199.66	-0.038537
2199.9	1.8301
2200.14	1.83706
2200.38	1.84309
2200.62	-0.0164843
2200.86	-0.945673
2201.1	0.908786
2201.34	-0.0406685
2201.58	1.77968
2201.81	-0.097683
2202.05	2.69973
2202.29	0.871019
2202.53	-0.0501041
2202.77	0.87468
2203.01	-1.91907
2203.25	1.82428
2203.49	-0.934138
2203.72	0.914235
2203.96	0.913309
2204.2	-0.0195084
2204.44	-0.0316362
2204.68	-0.0463085
2204.92	-1.91991
2205.16	0.861781
2205.39	0.858571
2205.63	-0.0712814
2205.87	0.861352
2206.11	-0.0706539
2206.35	0.853348
2206.59	-0.0761242
2206.83	0.855121
2207.06	-0.0728331
2207.3	-1.00084
2207.54	-3.79006
2207.78	0.86471
2208.02	-0.994664
2208.26	-1.92411
2208.49	-3.78553
2208.73	-1.92286
2208.97	0.87083
2209.21	-0.0615158
2209.45	-0.994224
2209.69	0.868231
2209.93	0.869372
2210.17	-0.0608339
2210.4	0.872463
2210.64	3.66985
2210.88	-4.71686
2211.12	-0.987067
2211.36	-0.0523109
2211.6	-0.0502176
2211.83	-1.91443
2212.07	-0.0490885
2212.31	-0.0512075
2212.55	-0.0538664
2212.79	-0.0562506
2213.02	1.80471
2213.26	3.6658
2213.5	-0.063241
2213.74	-0.99361
2213.98	3.67715
2214.22	-0.984201
2214.45	-0.0502367
2214.69	-1.917
2214.93	-1.91716
2215.17	-0.0503206
2215.41	1.81634
2215.65	-0.0519609
2215.88	-0.0532293
2216.12	1.81258
2216.36	-0.0564709
2216.6	-0.991602
2216.84	1.80812
2217.07	0.874244
2217.31	-2.8607
2217.55	-2.86189
2217.79	0.871611
2218.03	1.80513
2218.26	0.872162
2218.5	-0.0604448
2218.74	-0.992764
2218.98	-0.991101
2219.22	-0.990695
2219.45	-2.85878
2219.69	1.8144
2219.93	-3.79484
2220.17	-0.992653
2220.41	-0.994239
2220.64	-1.93135
2220.88	-0.0675268
2221.12	-0.0726185
2221.36	-0.0770044
2221.6	2.71979
2221.83	0.849695
2222.07	1.78187
2222.31	2.71587
2222.55	-1.01718
2222.78	-0.0822544
2223.02	0.853451
2223.26	2.725
2223.5	-1.00867
2223.74	-0.0703592
2223.97	2.73832
2224.21	-0.0642195
2224.45	-0.99738
2224.69	-0.0594912
2224.93	-0.0565748
2225.16	-0.0531025
2225.4	0.885651
2225.64	-0.048542
2225.88	-1.91999
2226.11	3.70323
2226.35	0.894831
2226.59	-0.0405636
2226.83	1.83611
2227.07	-1.91377
2227.3	0.899364
2227.54	-0.0400181
2227.78	-0.0422955
2228.02	-0.0444365
2228.25	1.82857
2228.49	-1.9234
2228.73	-0.987724
2228.96	0.886308
2229.2	-0.0492363
2229.44	-0.0460634
2229.68	0.894781
2229.92	0.896604
2230.15	0.898821
2230.39	-0.0375195
2230.63	-0.974115
2230.87	2.78492
2231.1	0.909646
2231.34	-0.0278587
2231.58	0.914052
2231.82	0.91629
2232.05	-0.961781
2232.29	-1.90045
2232.53	0.922698
2232.77	-0.956738
2233	-0.955072
2233.24	-0.0122747
2233.48	-2.83475
2233.71	0.930849
2233.95	1.8698
2234.19	-0.0149813
2234.43	-0.017971
2234.66	-0.0218964
2234.9	1.85229
2235.14	-0.0335045
2235.38	-0.0337772
2235.61	-0.974561
2235.85	-1.91523
2236.09	0.906102
2236.33	0.905742
2236.56	0.905813
2236.8	1.84973
2237.04	0.911507
2237.27	-1.90736
2237.51	1.86484
2237.75	-0.0141153
2237.98	-0.0108795
2238.22	-0.00771999
2238.46	-0.946905
2238.7	0.943965
2238.93	-1.88664
2239.17	-0.00232506
2239.41	-0.00548649
2239.65	3.76045
2239.88	1.86982
2240.12	-1.90378
2240.36	-0.011302
2240.59	0.93586
2240.83	0.935906
2241.07	-0.00757313
2241.3	-0.0073328
2241.54	0.936321
2241.78	-0.950748
2242.02	1.88163
2242.25	0.938825
2242.49	1.88191
2242.73	1.88026
2242.96	-0.955072
2243.2	-0.958202
2243.44	-0.0165148
2243.67	2.81313
2243.91	0.925446
2244.15	-0.0166454
2244.38	3.76398
2244.62	-0.00725555
2244.86	-0.00271511
2245.09	0.944907
2245.33	3.78327
2245.57	0.00422096
2245.81	-0.93937
2246.04	-0.937921
2246.28	-0.937585
2246.52	0.0100336
2246.75	-0.935009
2246.99	-3.77383
2247.23	-0.934992
2247.46	0.95665
2247.7	1.90114
2247.94	0.952723
2248.17	-0.941917
2248.41	-0.943707
2248.65	-0.945553
2248.88	0.945256
2249.12	0.947684
2249.36	-0.944552
2249.59	-0.945872
2249.83	-0.00255966
2250.07	0.939511
2250.3	0.935074
2250.54	-2.85294
2250.78	-1.91058
2251.01	-0.0226212
2251.25	-1.91513
2251.49	1.86641
2251.72	-0.969257
2251.96	-0.967883
2252.2	1.87204
2252.43	-2.85439
2252.67	-0.954505
2252.91	-0.950197
2253.14	-0.946818
2253.38	-0.944413
2253.61	1.90087
2253.85	0.00728416
2254.09	1.90467
2254.32	2.85202
2254.56	1.90097
2254.8	2.84943
2255.03	0.952067
2255.27	0.0036335
2255.51	1.89987
2255.74	2.85067
2255.98	-2.83856
2256.22	1.90673
2256.45	-0.938265
2256.69	-1.88582
2256.92	-0.935255
2257.16	-1.88336
2257.4	0.0162525
2257.63	5.7138
2257.87	-1.88344
2258.11	1.91549
2258.34	0.0166588
2258.58	0.0180378
2258.81	0.0194845
2259.05	0.0199919
2259.29	1.92098
2259.52	0.971771
2259.76	1.92312
2260	-0.927959
2260.23	-0.927495
2260.47	0.0248661
2260.7	0.0292568
2260.94	0.982877
2261.18	1.93396
2261.41	0.0311508
2261.65	-0.920017
2261.88	1.93546
2262.12	1.93721
2262.36	1.94015
2262.59	1.94325
2262.83	-0.910512
2263.06	0.998945
2263.3	0.050807
2263.54	0.0561981
2263.77	0.0612831
2264.01	-3.75139
2264.24	-0.885123
2264.48	1.98196
2264.72	-0.880335
2264.95	0.0764446
2265.19	0.0760422
2265.42	1.03093
2265.66	-0.88185
2265.9	-0.886089
2266.13	2.9285
2266.37	0.059473
2266.6	0.055191
2266.84	0.0517168
2267.08	-0.905546
2267.31	1.95275
2267.55	-1.86665
2267.78	-0.916224
2268.02	1.9426
2268.26	-1.87162
2268.49	1.94426
2268.73	0.993381
2268.96	-0.911265
2269.2	1.001
2269.43	0.0505724
2269.67	1.01026
2269.91	0.0591879
2270.14	1.97241
2270.38	0.0626221
2270.61	1.97701
2270.85	-0.888964
2271.08	-0.88787
2271.32	-0.886518
2271.55	0.0719204
2271.79	-0.884048
2272.03	-0.884507
2272.26	1.98557
2272.5	1.02894
2272.73	1.02912
2272.97	1.98613
2273.2	0.0723715
2273.44	2.94352
2273.68	-0.884642
2273.91	0.0723858
2274.15	-2.79915
2274.38	-1.84198
2274.62	1.0302
2274.85	0.0730104
2275.09	-1.84183
2275.32	1.02951
2275.56	2.94659
2275.79	1.03467
2276.03	0.0799799
2276.27	0.0827007
2276.5	0.0851917
2276.74	-0.870585
2276.97	-3.74356
2277.21	-0.861475
2277.44	0.103581
2277.68	-0.851011
2277.91	-1.80998
2278.15	0.111125
2278.38	0.110486
2278.62	-0.85131
2278.85	2.02797
2279.09	2.02345
2279.33	0.0954571
2279.56	1.04958
2279.8	3.92201
2280.03	-2.79633
2280.27	3.9123
2280.5	-0.884711
2280.74	-1.84557
2280.97	0.0689192
2281.21	-2.80826
2281.44	-1.84907
2281.68	-0.890051
2281.91	0.0702591
2282.15	1.03177
2282.38	-0.883405
2282.62	-1.84001
2282.85	0.0829153
2283.09	1.04879
2283.32	1.05597
2283.56	-1.82043
2283.79	1.0696
2284.03	-0.850212
2284.26	0.112905
2284.5	-1.80816
2284.73	-0.843596
2284.97	0.119259
2285.2	1.08114
2285.44	2.03853
2285.67	-0.85371
2285.91	0.107153
2286.14	0.107738
2286.38	-1.81388
2286.61	0.117126
2286.85	2.04819
2287.08	-0.839073
2287.32	0.125589
2287.55	0.128775
2287.79	2.0536
2288.02	-0.839379
2288.26	1.08392
2288.49	0.117187
2288.73	1.07411
2288.96	0.105067
2289.2	1.06066
2289.43	1.05355
2289.67	1.05057
2289.9	5.85517
2290.14	0.0866365
2290.37	-0.874788
2290.61	0.0885696
2290.84	0.0924368
2291.08	1.05917
2291.31	1.0624
2291.55	-0.860222
2291.78	0.104561
2292.02	2.9959
2292.25	0.110459
2292.48	-0.84993
2292.72	2.0428
2292.95	0.11754
2293.19	-1.80879
2293.42	-0.844824
2293.66	-0.846542
2293.89	0.114809
2294.13	1.07526
2294.36	0.108297
2294.6	1.06876
2294.83	1.06591
2295.07	-0.862885
2295.3	2.02306
2295.54	1.05774
2295.77	1.05272
2296.01	-0.878278
2296.24	2.00685
2296.47	-1.84063
2296.71	2.97252
2296.94	3.93819
2297.18	-0.871306
2297.41	-0.867311
2297.65	1.06396
2297.88	0.103554
2298.11	-0.858214
2298.35	3.00016
2298.58	3.96879
2298.82	0.11514
2299.05	3.01126
2299.29	-0.846138
2299.52	0.118011
2299.76	0.11757
2299.99	1.08164
2300.23	0.118689
2300.46	0.121015
2300.69	2.05288
2300.93	1.08934
2301.16	0.124872
2301.4	1.09012
2301.63	1.08918
2301.87	-1.80824
2302.1	1.08601
2302.33	3.01636
2302.57	0.12016
2302.8	-0.846036
2303.04	1.08358
2303.27	-1.81157
2303.5	-2.77557
2303.74	-1.80818
2303.97	-1.80629
2304.21	-1.80498
2304.44	0.128532
2304.68	-0.834731
2304.91	0.132707
2305.14	-3.73132
2305.38	-2.76428
2305.61	3.03555
2305.85	0.138015
2306.08	3.03816
2306.31	3.03829
2306.55	2.07128
2306.78	0.137389
2307.02	1.10205
2307.25	3.03249
2307.48	2.0647
2307.72	-0.835785
2307.95	2.06131
2308.19	0.128868
2308.42	0.129674
2308.65	0.131984
2308.89	0.134645
2309.12	-0.827997
2309.36	-1.79051
2309.59	2.0814
2309.82	-0.819211
2310.06	0.148485
2310.29	1.11521
2310.53	0.145958
2310.76	1.10893
2310.99	-0.834479
2311.23	-2.77541
2311.46	1.08199
2311.7	-1.81797
2311.93	-0.854992
2312.16	0.10731
2312.4	0.105305
2312.63	1.07012
2312.86	0.107262
2313.1	-0.852841
2313.33	-0.84713
2313.56	0.123322
2313.8	-1.80446
2314.03	0.133081
2314.27	1.10637
2314.5	0.144534
2314.73	1.11479
2314.97	2.0768
2315.2	-1.79519
2315.43	1.10232
2315.67	0.131203
2315.9	-1.8098
2316.14	2.04959
2316.37	0.116065
2316.6	1.08158
2316.84	0.117059
2317.07	0.118094
2317.3	1.08887
2317.54	0.125674
2317.77	0.119601
2318	2.04891
2318.24	0.115558
2318.47	0.113193
2318.71	1.07589
2318.94	-0.856529
2319.17	3.00197
2319.41	2.03596
2319.64	0.106545
2319.87	-0.857718
2320.11	0.107322
2320.34	2.03945
2320.57	0.112034
2320.81	1.08041
2321.04	0.118327
2321.27	-0.843633
2321.51	2.0593
2321.74	3.99808
2321.97	2.07026
2322.21	2.0722
2322.44	1.10486
2322.67	3.0397
2322.91	0.141011
2323.14	2.07612
2323.37	0.143856
2323.61	2.07869
2323.84	2.07822
2324.07	4.01166
2324.31	1.10686
2324.54	3.03472
2324.77	3.99433
2325.01	3.99036
2325.24	6.88378
2325.47	6.87975
2325.71	3.97983
2325.94	11.6962
2326.17	11.6907
2326.41	12.6499
2326.64	19.3951
2326.87	32.8863
2327.1	38.6644
2327.34	64.6808
2327.57	88.7677
2327.8	114.799
2328.04	91.6678
2328.27	69.5023
2328.5	42.5011
2328.74	24.1842
2328.97	21.2841
2329.2	10.6871
2329.44	7.79723
2329.67	8.76473
2329.9	9.72636
2330.13	6.8357
2330.37	2.01911
2330.6	5.87132
2330.83	1.05833
2331.07	2.98814
2331.3	2.99205
2331.53	1.07027
2331.77	0.10224
2332	2.98963
2332.23	3.95074
2332.47	-0.865688
2332.7	1.0587
2332.93	0.0947313
2333.16	2.01894
2333.4	2.98062
2333.63	1.05413
2333.86	0.0899687
2334.09	2.01043
2334.33	1.04703
2334.56	1.04624
2334.79	1.04669
2335.02	0.0850286
2335.26	-0.874917
2335.49	-1.83459
2335.72	1.05093
2335.96	2.01166
2336.19	0.0885334
2336.42	2.9734
2336.66	1.05079
2336.89	-0.871859
2337.12	2.01277
2337.35	1.05099
2337.59	-0.871555
2337.82	1.05132
2338.05	2.01279
2338.28	0.0911608
2338.52	2.01538
2338.75	-1.82787
2338.98	1.05687
2339.21	-0.864847
2339.45	0.0962076
2339.68	2.97839
2339.91	-2.78855
2340.14	1.05313
2340.38	2.97147
2340.61	1.04708
2340.84	4.88233
2341.07	0.0782309
2341.31	-0.884148
2341.54	-0.885412
2341.77	0.0723515
2342	0.071331
2342.24	1.02965
2342.47	1.98873
2342.7	1.98987
2342.93	0.0743303
2343.17	-1.84214
2343.4	1.99291
2343.63	1.99474
2343.86	-1.83694
2344.1	-0.876281
2344.33	0.0834007
2344.56	1.04248
2344.79	1.04224
2345.02	1.99935
2345.26	-0.877983
2345.49	2.95256
2345.72	0.0775213
2345.95	-1.83713
2346.19	1.03659
2346.42	1.03747
2346.65	2.95261
2346.88	0.0806942
2347.12	0.082201
2347.35	1.0418
2347.58	0.0975189
2347.81	0.109169
2348.04	3.86846
2348.28	0.110397
2348.51	0.934896
2348.74	3.71586
2348.97	-0.834866
2349.2	0.94475
2349.44	-0.917632
2349.67	0.734172
2349.9	0.768955
2350.13	0.08743
2350.37	1.612
2350.6	0.810399
2350.83	2.52059
2351.06	1.60665
2351.29	-0.979009
2351.53	-0.291187
2351.76	-0.845036
2351.99	1.70279
2352.22	-0.0881453
2352.45	-1.11788
2352.69	1.53972
2352.92	2.01815
2353.15	-3.37369
2353.38	0.0883799
2353.61	0.461985
2353.85	0.339804
2354.08	0.0788059
2354.31	0.695302
2354.54	0.884199
2354.77	0.283849
2355.01	-0.642951
2355.24	0.480975
2355.47	2.15227
2355.7	0.213931
2355.93	0.27307
2356.17	-0.854053
2356.4	0.458539
2356.63	-0.346411
2356.86	-0.620509
2357.09	-0.295093
2357.32	0.274621
2357.56	-0.0595169
2357.79	-1.13672
2358.02	-0.0702305
2358.25	0.42799
2358.48	-0.200232
2358.71	1.61461
2358.95	0.465025
2359.18	2.00072
2359.41	-1.8269
2359.64	-1.08692
2359.87	-2.03745
2360.1	0.721685
2360.34	-1.17517
2360.57	-0.278282
2360.8	-1.24232
2361.03	0.525819
2361.26	0.142584
2361.49	-0.18574
2361.73	-0.230648
2361.96	0.64543
2362.19	-0.288965
2362.42	0.718911
2362.65	-2.30043
2362.88	-0.656039
2363.11	1.10703
2363.35	0.797721
2363.58	-1.46568
2363.81	2.83502
2364.04	0.534299
2364.27	0.94403
2364.5	-0.705748
2364.73	0.165309
2364.97	-0.58699
2365.2	-0.540426
2365.43	-1.38282
2365.66	-0.439927
2365.89	0.044961
2366.12	-0.33221
2366.36	0.00714397
2366.59	0.936062
2366.82	-0.349155
2367.05	1.1663
2367.28	1.20515
2367.51	-0.906832
2367.74	-0.3486
2367.97	2.02115
2368.2	-0.199959
2368.44	-1.06081
2368.67	0.391772
2368.9	1.04715
2368.98	1.05751
2369.22	2.00141
2369.45	2.00123
2369.69	-1.77153
2369.92	-1.77094
2370.15	2.00064
2370.39	-0.825772
2370.62	-2.7091
2370.86	2.00336
2371.09	0.121241
2371.33	-0.817999
2371.56	-4.58241
2371.79	0.127964
2372.03	-0.811629
2372.26	1.07285
2372.5	-1.74872
2372.73	1.07762
2372.97	1.08125
2373.2	1.08482
2373.43	-0.794896
2373.67	0.146907
2373.9	1.08902
2374.14	2.03119
2374.37	0.152658
2374.6	0.154533
2374.84	1.09563
2375.07	-0.781939
2375.31	-4.53651
2375.54	2.04304
2375.77	0.168235
2376.01	0.17179
2376.24	0.17369
2376.48	1.11492
2376.71	-0.759168
2376.94	-0.755239
2377.18	-1.69025
2377.41	-0.748971
2377.65	0.191341
2377.88	1.13235
2378.11	-1.67945
2378.35	-0.739179
2378.58	-1.67443
2378.82	0.201996
2379.05	1.13888
2379.28	1.13873
2379.52	-1.66875
2379.75	1.14418
2379.98	-0.724124
2380.22	1.15259
2380.45	0.22103
2380.69	-1.64617
2380.92	2.10352
2381.15	0.237345
2381.39	-0.692292
2381.62	-1.62274
2381.85	-1.61799
2382.09	1.19553
2382.32	1.20064
2382.56	2.14098
2382.79	0.274098
2383.02	-1.59188
2383.26	1.22092
2383.49	0.290847
2383.72	-1.57447
2383.96	1.23897
2384.19	-0.62669
2384.42	0.314242
2384.66	1.25504
2384.89	1.25901
2385.13	-0.60777
2385.36	-0.604064
2385.59	-1.53632
2385.83	0.335654
2386.06	0.338742
2386.29	3.14272
2386.53	-0.591441
2386.76	-1.52225
2386.99	1.27928
2387.23	1.28176
2387.46	0.354592
2387.69	-1.50391
2387.93	-0.563958
2388.16	-0.557282
2388.4	1.3145
2388.63	-0.545278
2388.86	-2.40496
2389.1	-1.46545
2389.33	-0.526269
2389.56	-1.45216
2389.8	1.35234
2390.03	-0.505243
2390.26	-2.36232
2390.5	1.37621
2390.73	-1.41297
2390.96	2.32594
2391.2	-1.39673
2391.43	-0.456762
2391.66	-1.38259
2391.9	1.42158
2392.13	-0.437
2392.36	1.43374
2392.59	-1.36045
2392.83	3.30087
2393.06	-0.422945
2393.3	0.509998
2393.53	-0.416563
2393.76	0.519321
2394	0.526348
2394.23	-1.32976
2394.46	-1.32508
2394.69	0.54423
2394.93	-0.374722
2395.16	0.569522
2395.39	-0.323867
2395.63	2.48484
2395.86	-1.23712
2396.09	1.58117
2396.33	0.664043
2396.56	1.59413
2396.79	0.666888
2397.02	1.6073
2397.26	1.61622
2397.49	1.62574
2397.73	0.702345
2397.96	1.64337
2398.19	0.71936
2398.42	-0.204082
2398.66	0.737613
2398.89	2.61177
2399.12	-1.1083
2399.36	1.69922
2399.59	-2.02149
2399.82	0.785886
