#Acq. time (s)=	30
#Accumulations=	2
#Range (cm-¹)=	1200...2365
#Windows=	3
#Auto scanning=	Off
#Autofocus=	Off
#Macrospot=	Off
#AutoExposure=	Off
#Spike filter=	Multiple accum.
#Delay time (s)=	2
#Binning=	1
#Readout mode=	Signal
#DeNoise=	Off
#ICS correction=	On
#Dark correction=	Off
#Inst. Process=	Off
#Detector Gain=	Best Dynamic
#Detector ADC=	50 kHz HS
#Detector temperature (°C)=	-60.09
#Instrument=	LabRAM HR Evol
#Detector=	SIN-EM FIVIS
#Objective=	x100_VIS_LWD
#Grating=	1800 (450-850nm)
#ND Filter=	100%
#Laser=	532nm_Edge
#Hole=	49.98
#Temperature=	0
#Range=	Visible
#StageXY=	75x50mm Scan+
#StageZ=	Z motor
#X (µm)=	0
#Y (µm)=	0
#Z (µm)=	12.2
#Full time(mm:ss)=	3:18
#Project=	21_11_22
#Sample=	BU19w
#Site=	
#Title=	BU19w-D-FF2-FI08-V_1800 (450-850nm)_532nm_Edge_100%_x100_VIS_LWD_H50um_30sX2
#Remark=	
#Date=	22.11.2021 13:45
#Acquired=	22.11.2021 13:45:11
#Base:Fit=	16.12.2021 17:39:50
#Base:Fit=	16.12.2021 17:43:29
#Base:Sub=	16.12.2021 17:43:30
1202.84	8.29484
1203.12	6.08447
1203.4	3.87696
1203.67	3.81684
1203.95	3.7575
1204.23	-0.583988
1204.51	2.57731
1204.78	8.9506
1205.06	4.61953
1205.34	3.50075
1205.62	1.31107
1205.9	3.40193
1206.17	4.42365
1206.45	4.37965
1206.73	5.40822
1207.01	4.29835
1207.29	3.18618
1207.56	6.34398
1207.84	5.22722
1208.12	3.04642
1208.39	3.00143
1208.67	1.89167
1208.95	1.84797
1209.23	1.80482
1209.51	2.83044
1209.78	3.85643
1210.06	0.621416
1210.34	4.84544
1210.62	4.8117
1210.89	1.58275
1211.17	1.55464
1211.45	6.85099
1211.72	0.436287
1212	-0.655312
1212.28	1.44703
1212.56	1.42032
1212.84	2.45841
1213.11	0.299175
1213.39	-1.86078
1213.67	-1.89376
1213.94	0.200294
1214.22	1.23328
1214.5	6.51637
1214.78	3.30013
1215.05	4.33512
1215.33	1.12417
1215.61	2.1606
1215.89	0.016222
1216.16	-3.18671
1216.44	-1.08422
1216.72	-1.10364
1216.99	-4.30686
1217.27	3.10083
1217.55	-0.0960026
1217.83	2.00898
1218.1	-3.31003
1218.38	-1.20724
1218.66	-1.22442
1218.93	-3.36342
1219.21	4.03223
1219.49	-0.228527
1219.77	-3.42752
1220.04	-2.39098
1220.32	-1.35406
1220.6	-0.317389
1220.88	-3.50504
1221.15	1.75941
1221.43	-0.367977
1221.71	-0.380627
1221.98	0.663698
1222.26	0.655607
1222.54	0.651421
1222.81	-2.51889
1223.09	-0.409946
1223.37	0.640064
1223.64	2.74498
1223.92	-2.5424
1224.2	-1.49491
1224.48	-3.61936
1224.75	2.68227
1225.03	4.76775
1225.31	0.537296
1225.58	-0.539476
1225.86	3.64329
1226.14	1.53568
1226.41	-0.51405
1226.69	5.87288
1226.97	2.69077
1227.24	3.71799
1227.52	1.59973
1227.8	7.92383
1228.07	4.75294
1228.35	4.69337
1228.63	2.59635
1228.9	6.80214
1229.18	8.9062
1229.46	7.85452
1229.73	12.0602
1230.01	16.265
1230.29	15.2146
1230.56	14.1675
1230.84	16.2756
1231.12	17.3356
1231.39	14.1934
1231.67	19.4593
1231.95	21.576
1232.22	23.6889
1232.5	21.598
1232.78	24.7654
1233.05	21.6237
1233.33	25.8376
1233.61	26.8914
1233.88	19.5341
1234.16	21.6363
1234.43	21.6302
1234.71	22.6734
1234.99	19.5169
1235.26	17.4123
1235.54	20.5546
1235.82	18.4544
1236.09	18.4578
1236.37	17.4147
1236.65	11.1319
1236.92	5.90024
1237.2	12.2006
1237.47	11.1646
1237.75	6.9855
1238.03	11.1932
1238.3	3.86996
1238.58	7.02653
1238.85	11.2267
1239.13	2.85286
1239.41	6.01089
1239.68	4.97973
1239.96	2.90178
1240.24	7.11444
1240.51	9.22637
1240.79	7.14509
1241.06	2.96969
1241.34	6.13097
1241.62	3.00043
1241.89	4.06264
1242.17	1.97783
1242.45	1.98797
1242.72	6.18591
1243	2.00453
1243.27	3.06439
1243.55	4.12686
1243.83	5.19127
1244.1	8.3495
1244.38	4.17887
1244.65	8.38294
1244.93	9.44537
1245.2	9.45321
1245.48	6.32657
1245.76	8.4359
1246.03	1.13577
1246.31	6.38747
1246.59	4.31427
1246.86	6.42485
1247.14	5.39957
1247.41	14.8264
1247.69	8.56434
1247.96	7.53254
1248.24	7.54718
1248.51	13.8316
1248.79	15.9357
1249.07	8.639
1249.34	10.7432
1249.62	14.9348
1249.89	14.9486
1250.17	17.0506
1250.45	12.8943
1250.72	13.96
1251	12.9444
1251.27	18.1932
1251.55	14.0489
1251.82	14.076
1252.1	15.1439
1252.38	16.2144
1252.65	14.1497
1252.93	13.1273
1253.2	10.0197
1253.48	12.1348
1253.75	5.89736
1254.03	8.01239
1254.3	8.03556
1254.58	9.09977
1254.86	8.07709
1255.13	8.09928
1255.41	8.12148
1255.68	7.09961
1255.96	6.07288
1256.23	5.05293
1256.51	4.03796
1256.78	4.06545
1257.06	6.19438
1257.33	7.25623
1257.61	4.14334
1257.88	3.11524
1258.16	4.17768
1258.44	4.199
1258.71	4.2256
1258.99	6.36331
1259.26	0.154366
1259.54	7.53164
1259.81	1.23702
1260.09	4.3645
1260.36	3.32766
1260.64	3.3814
1260.91	6.56212
1261.19	2.4333
1261.46	2.48017
1261.74	6.6715
1262.01	4.59977
1262.29	6.7169
1262.56	7.78804
1262.84	7.80878
1263.11	1.56662
1263.39	9.95513
1263.66	9.98674
1263.94	14.2014
1264.21	5.87368
1264.49	8.00067
1264.76	5.94513
1265.04	5.98232
1265.31	3.92889
1265.59	3.96741
1265.86	-1.23641
1266.14	-1.20467
1266.41	-1.17379
1266.69	-5.33707
1266.96	0.972803
1267.24	-0.0531082
1267.51	1.01713
1267.79	-0.00662804
1268.06	-1.02899
1268.34	-2.0486
1268.61	-2.02245
1268.89	0.0996437
1269.16	-0.913429
1269.44	3.30892
1269.71	-3.9841
1269.99	1.28777
1270.26	-1.8208
1270.54	-0.738529
1270.81	2.4413
1271.09	1.4281
1271.36	-2.73443
1271.64	1.49157
1271.91	-0.577921
1272.18	-1.59802
1272.46	1.5801
1272.74	-4.68214
1273.01	1.64598
1273.28	-2.51779
1273.56	3.81394
1273.83	-4.5522
1274.11	2.83063
1274.38	-0.285753
1274.66	-0.251219
1274.93	1.88511
1275.21	1.91898
1275.48	-1.20145
1275.76	-1.16613
1276.03	-1.13365
1276.3	-1.10042
1276.58	-1.07229
1276.85	2.11119
1277.13	0.0340347
1277.4	1.1137
1277.68	2.19664
1277.95	2.22756
1278.23	-2.99796
1278.5	6.50963
1278.77	3.3855
1279.05	3.41398
1279.32	-2.87091
1279.6	0.319746
1279.87	2.45148
1280.15	1.41865
1280.42	2.47828
1280.69	1.44608
1280.97	4.62879
1281.24	9.91643
1281.52	11.0735
1281.79	15.3234
1282.07	24.8389
1282.34	33.2719
1282.61	50.1256
1282.89	63.84
1283.16	94.4277
1283.44	138.693
1283.71	175.538
1283.99	178.724
1284.26	140.842
1284.53	88.2147
1284.81	50.3345
1285.08	27.2027
1285.36	17.7598
1285.63	10.4231
1285.9	3.08688
1286.18	7.32951
1286.45	4.20518
1286.73	6.34445
1287	3.21935
1287.28	1.1459
1287.55	-1.98509
1287.82	1.20161
1288.1	3.33541
1288.37	1.25738
1288.64	-0.820654
1288.92	1.31386
1289.19	1.3423
1289.47	-2.84061
1289.74	2.45342
1290.01	-0.679398
1290.29	-0.650314
1290.56	2.54418
1290.84	-1.63358
1291.11	0.511328
1291.38	-0.511257
1291.66	-0.483057
1291.93	1.65316
1292.21	1.68422
1292.48	2.77612
1292.75	-2.46154
1293.03	-1.36519
1293.3	1.84235
1293.57	-3.41175
1293.85	-3.38317
1294.12	0.870972
1294.4	-0.161257
1294.67	-2.25043
1294.94	0.942329
1295.22	2.02092
1295.49	-1.11845
1295.76	1.02087
1296.04	-0.010828
1296.31	0.014122
1296.58	0.0385456
1296.86	-2.0456
1297.13	4.31876
1297.4	-0.930162
1297.68	-1.95812
1297.95	-1.93157
1298.22	0.206711
1298.5	1.29041
1298.77	1.32086
1299.04	-0.761208
1299.32	-0.732317
1299.59	-2.81741
1299.87	2.49109
1300.14	0.404099
1300.41	0.428808
1300.69	0.452343
1300.96	0.477943
1301.23	-0.550928
1301.51	4.75544
1301.78	-0.498032
1302.05	-3.64095
1302.33	1.66108
1302.6	1.68298
1302.87	1.70465
1303.15	-0.383907
1303.42	-1.41632
1303.69	-1.392
1303.97	0.743088
1304.24	-4.50267
1304.51	0.797581
1304.79	-2.34105
1305.06	-0.206177
1305.33	5.09495
1305.6	1.95472
1305.88	-0.128405
1306.15	2.01007
1306.42	-0.0717678
1306.7	-0.0434647
1306.97	1.03919
1307.24	-1.04659
1307.52	1.08805
1307.79	-2.05272
1308.06	-2.02701
1308.34	-3.05633
1308.61	-0.919882
1308.88	0.161827
1309.15	-1.92159
1309.43	3.3849
1309.7	-1.86825
1309.97	-0.788034
1310.25	-0.766375
1310.52	0.313047
1310.79	3.50281
1311.06	0.358854
1311.34	-1.72796
1311.61	1.46379
1311.88	-0.621595
1312.16	-0.595263
1312.43	0.486725
1312.7	0.513014
1312.98	-0.516777
1313.25	2.67522
1313.52	-0.4708
1313.79	0.608282
1314.07	-0.424772
1314.34	0.65468
1314.61	0.680576
1314.89	2.81845
1315.16	1.78671
1315.43	0.754471
1315.7	-1.33488
1315.98	-0.255264
1316.25	-3.40207
1316.52	4.01525
1316.79	-2.30095
1317.07	0.891979
1317.34	-2.25419
1317.61	3.04975
1317.88	2.01325
1318.16	2.03154
1318.43	-2.17436
1318.7	3.12008
1318.97	4.19396
1319.25	4.20992
1319.52	1.06467
1319.79	0.0294762
1320.06	-1.00545
1320.34	3.22976
1320.61	2.19971
1320.88	0.113434
1321.16	3.29903
1321.43	0.156513
1321.7	1.2329
1321.97	-0.855413
1322.25	0.222216
1322.52	1.29371
1322.79	2.36059
1323.06	2.37117
1323.33	0.272627
1323.61	1.3403
1323.88	3.46306
1324.15	0.332544
1324.42	1.41864
1324.7	0.392349
1324.97	1.4727
1325.24	1.50024
1325.51	2.58255
1325.79	0.499514
1326.06	-1.58785
1326.33	2.64943
1326.6	-0.493172
1326.87	0.581367
1327.15	-2.56485
1327.42	0.617699
1327.69	-0.420223
1327.96	0.650114
1328.23	1.71886
1328.51	3.83899
1328.78	1.7429
1329.05	0.702868
1329.32	1.76997
1329.6	-0.320686
1329.87	-1.35894
1330.14	0.757761
1330.41	0.771095
1330.68	-0.266146
1330.96	1.84929
1331.23	3.9635
1331.5	1.87683
1331.77	2.94068
1332.04	1.90557
1332.32	0.871279
1332.59	1.93551
1332.86	0.901649
1333.13	3.01454
1333.4	1.98114
1333.67	0.948259
1333.95	4.10936
1334.22	2.02883
1334.49	3.09327
1334.76	3.10901
1335.03	3.12235
1335.3	-1.05511
1335.58	5.24462
1335.85	3.16425
1336.12	4.2264
1336.39	1.10174
1336.66	1.11946
1336.94	2.18477
1337.21	2.2023
1337.48	1.17262
1337.75	2.23756
1338.02	3.30141
1338.29	6.45899
1338.57	4.37984
1338.84	2.30017
1339.11	3.36075
1339.38	1.27983
1339.65	1.29173
1339.93	2.34968
1340.2	-3.91272
1340.47	1.33187
1340.74	0.301425
1341.01	1.36306
1341.28	6.60849
1341.55	1.39511
1341.82	0.363702
1342.1	1.42245
1342.37	5.61593
1342.64	4.57986
1342.91	1.45559
1343.18	3.55427
1343.45	2.51635
1343.73	1.48169
1344	2.535
1344.27	3.5874
1344.54	2.55429
1344.81	3.60815
1345.08	0.493391
1345.35	3.63344
1345.63	2.60461
1345.9	-0.509542
1346.17	1.5859
1346.44	-1.52789
1346.71	1.60824
1346.98	2.66071
1347.25	2.67172
1347.52	3.72345
1347.8	-1.47026
1348.07	0.620977
1348.34	2.71256
1348.61	0.641985
1348.88	0.654255
1349.15	4.82686
1349.42	1.72277
1349.69	2.77997
1349.96	0.718164
1350.24	5.93647
1350.51	3.884
1350.78	6.00321
1351.05	2.87343
1351.32	4.939
1351.59	0.773274
1351.86	0.787971
1352.13	2.88123
1352.41	3.92687
1352.68	1.85781
1352.95	2.91451
1353.22	0.851956
1353.49	5.01591
1353.76	3.98766
1354.03	3.99837
1354.3	5.04738
1354.57	1.94192
1354.84	1.95148
1355.11	6.11286
1355.39	0.931752
1355.66	3.01634
1355.93	5.09966
1356.2	3.03291
1356.47	3.042
1356.74	2.01436
1357.01	5.13218
1357.28	0.991866
1357.55	3.07121
1357.82	3.07896
1358.09	-0.0189571
1358.36	1.02782
1358.63	3.11012
1358.9	3.12021
1359.18	0.0223618
1359.45	0.0316505
1359.72	3.1474
1359.99	4.19284
1360.26	1.09832
1360.53	4.21842
1360.8	2.16016
1361.07	3.20866
1361.34	7.36284
1361.61	4.26437
1361.88	3.23709
1362.15	2.20877
1362.42	2.21528
1362.69	6.3617
1362.97	1.19282
1363.24	5.3377
1363.51	1.20545
1363.78	3.27898
1364.05	2.24897
1364.32	2.25569
1364.59	5.36404
1364.86	5.37579
1365.13	1.25257
1365.4	3.33046
1365.67	2.30725
1365.94	2.31764
1366.21	2.32834
1366.48	3.37278
1366.75	2.3462
1367.02	-0.747975
1367.29	4.42777
1367.56	4.43212
1367.83	1.33852
1368.1	4.4438
1368.37	6.51308
1368.64	6.51488
1368.91	8.57948
1369.18	13.7376
1369.45	10.6423
1369.72	5.48877
1369.99	1.3702
1370.26	3.43783
1370.54	3.44387
1370.81	3.45022
1371.08	1.39607
1371.34	3.46363
1371.62	4.50077
1371.89	3.47717
1372.16	4.51282
1372.43	5.5513
1372.7	2.47107
1372.97	6.59917
1373.24	2.48736
1373.51	2.49081
1373.78	1.46459
1374.05	6.61423
1374.32	6.61193
1374.59	6.62173
1374.86	5.60485
1375.13	4.59006
1375.4	6.66687
1375.67	4.62483
1375.94	7.72858
1376.21	5.67305
1376.48	8.77
1376.75	9.80448
1377.02	6.71509
1377.29	7.74407
1377.56	6.70294
1377.83	5.67132
1378.09	4.64068
1378.36	9.7941
1378.64	6.70996
1378.91	10.8183
1379.18	3.62065
1379.44	8.75395
1379.71	10.8051
1379.98	9.77531
1380.25	7.72322
1380.52	8.74819
1380.79	8.75028
1381.06	9.77781
1381.33	8.75934
1381.6	7.74171
1381.87	10.8281
1382.14	10.8402
1382.41	9.83005
1382.68	12.9215
1382.95	10.8802
1383.22	12.9424
1383.49	7.81865
1383.76	13.9893
1384.03	13.9948
1384.3	13.9825
1384.57	14.9577
1384.84	22.0721
1385.11	25.115
1385.38	25.1629
1385.65	35.4776
1385.92	47.855
1386.19	73.5736
1386.45	121.84
1386.72	212.236
1386.99	343.581
1387.26	417.183
1387.53	287.782
1387.8	149.374
1388.07	77.5582
1388.34	43.7332
1388.61	31.4361
1388.88	27.3324
1389.15	16.0588
1389.42	11.9602
1389.69	10.9363
1389.96	7.86591
1390.23	11.9623
1390.49	5.8227
1390.76	9.9189
1391.03	8.89779
1391.3	6.85372
1391.57	8.90301
1391.84	6.85973
1392.11	3.79576
1392.38	4.82623
1392.65	7.90326
1392.92	4.83745
1393.19	3.81717
1393.46	6.89018
1393.73	3.82124
1393.99	3.82265
1394.26	4.84623
1394.53	3.82338
1394.8	3.82512
1395.07	5.87397
1395.34	1.78719
1395.61	2.81541
1395.88	6.9124
1396.15	2.82438
1396.42	1.80705
1396.68	6.92926
1396.95	4.8875
1397.22	2.84365
1397.49	3.8726
1397.76	7.97566
1398.03	1.83736
1398.3	3.88807
1398.57	4.9171
1398.84	4.92012
1399.11	0.831082
1399.38	1.86706
1399.64	1.8795
1399.91	5.99397
1400.18	4.97688
1400.45	7.03599
1400.72	4.98594
1400.99	7.03809
1401.26	2.92517
1401.53	3.95593
1401.79	2.93112
1402.06	3.95753
1402.33	4.98254
1402.6	2.93051
1402.87	2.92992
1403.14	4.97973
1403.41	4.98004
1403.68	3.9557
1403.94	3.95871
1404.21	3.96218
1404.48	4.99107
1404.75	1.91872
1405.02	3.97231
1405.29	5.00072
1405.56	6.02925
1405.82	9.10912
1406.09	5.01092
1406.36	7.06573
1406.63	6.04358
1406.9	10.1498
1407.17	9.12634
1407.44	11.1751
1407.7	13.2209
1407.97	17.3143
1408.24	17.3087
1408.51	20.3789
1408.78	24.4739
1409.05	18.3269
1409.31	15.259
1409.58	11.1689
1409.85	8.10818
1410.12	6.08284
1410.39	10.2084
1410.66	5.06013
1410.92	4.00866
1411.19	6.06413
1411.46	4.02631
1411.73	3.0104
1412	3.01034
1412.27	0.958913
1412.53	5.06685
1412.8	0.961687
1413.07	5.07119
1413.34	1.99336
1413.61	1.99598
1413.88	3.02579
1414.14	-1.08013
1414.41	4.05918
1414.68	3.03464
1414.95	2.00908
1415.22	3.03788
1415.48	3.03938
1415.75	4.06887
1416.02	0.986745
1416.29	-0.039732
1416.56	5.0978
1416.82	0.985332
1417.09	-0.0442152
1417.36	5.08924
1417.63	0.978651
1417.9	4.05603
1418.17	0.973885
1418.43	5.07841
1418.7	2.00064
1418.97	3.03171
1419.24	2.01112
1419.5	2.01662
1419.77	2.02546
1420.04	-0.0186987
1420.31	1.02418
1420.58	3.0519
1420.84	4.03328
1421.11	3.01607
1421.38	6.07406
1421.65	2.99822
1421.92	1.98012
1422.18	5.06514
1422.45	0.968897
1422.72	4.04107
1422.99	-0.0549479
1423.26	0.970005
1423.52	-0.0579433
1423.79	-1.08684
1424.06	1.9852
1424.33	-4.16845
1424.59	2.99894
1424.86	4.01721
1425.13	2.99028
1425.4	0.941313
1425.66	4.01307
1425.93	-1.10574
1426.2	1.96732
1426.47	1.96899
1426.73	0.946933
1427	5.04805
1427.27	1.9784
1427.54	0.95666
1427.81	5.06209
1428.07	0.966846
1428.34	3.02425
1428.61	2.00069
1428.88	2.00066
1429.14	0.971479
1429.41	1.99363
1429.68	0.964921
1429.94	0.960376
1430.21	3.00473
1430.48	2.99731
1430.75	2.99022
1431.02	1.96135
1431.28	2.98314
1431.55	0.940763
1431.82	1.9687
1432.08	0.944155
1432.35	-0.0809755
1432.62	5.04177
1432.89	1.96635
1433.15	0.94018
1433.42	1.96313
1433.69	0.936626
1433.96	1.95893
1434.22	-0.0916729
1434.49	1.95574
1434.76	-0.0948925
1435.02	0.927732
1435.29	0.92766
1435.56	1.95343
1435.83	0.929804
1436.09	0.929574
1436.36	-1.11949
1436.63	-1.1184
1436.89	1.95835
1437.16	-0.0884752
1437.43	4.01397
1437.7	2.98888
1437.96	-0.087986
1438.23	2.98841
1438.5	2.98643
1438.77	-1.11835
1439.03	2.98028
1439.3	5.03344
1439.57	1.95677
1439.83	2.98469
1440.1	4.00738
1440.37	-0.0981255
1440.63	2.97457
1440.9	2.97184
1441.17	2.97011
1441.43	-2.15587
1441.7	1.94824
1441.97	1.95092
1442.24	0.929322
1442.5	1.95301
1442.77	1.95043
1443.03	-0.103608
1443.3	0.919824
1443.57	0.917591
1443.84	-0.110269
1444.1	-0.112489
1444.37	0.910413
1444.64	-1.14321
1444.9	1.92981
1445.17	2.95349
1445.44	3.98046
1445.7	3.9835
1445.97	2.95782
1446.24	3.98211
1446.5	0.90268
1446.77	0.899562
1447.04	-0.129395
1447.3	1.91725
1447.57	0.889576
1447.84	1.91212
1448.1	2.93448
1448.37	1.90694
1448.64	-4.24431
1448.9	1.90118
1449.17	-1.17505
1449.44	2.92105
1449.7	0.870867
1449.97	0.870152
1450.24	-1.17894
1450.5	1.8954
1450.77	-0.155412
1451.04	-1.18252
1451.3	1.88945
1451.57	0.863324
1451.83	-0.162754
1452.1	1.88487
1452.37	1.88238
1452.63	1.88106
1452.9	1.88241
1453.17	-0.1673
1453.43	2.90613
1453.7	0.853632
1453.97	4.94855
1454.23	0.845771
1454.5	0.843172
1454.77	1.86513
1455.03	1.86294
1455.3	0.83716
1455.56	-0.188432
1455.83	2.88425
1456.1	2.88357
1456.36	2.88263
1456.63	0.832362
1456.9	2.87944
1457.16	-1.22117
1457.43	-0.199184
1457.69	-1.22621
1457.96	-0.204869
1458.23	0.815919
1458.49	1.83647
1458.76	-0.215049
1459.02	1.82849
1459.29	-0.222966
1459.56	0.79599
1459.82	1.81435
1460.09	2.83204
1460.36	2.82647
1460.62	-1.26841
1460.89	1.7964
1461.15	1.79934
1461.42	2.82832
1461.69	-1.26132
1461.95	-0.233248
1462.22	0.78065
1462.48	-1.29192
1462.75	1.75758
1463.02	-1.30791
1463.28	0.736135
1463.55	0.733656
1463.81	0.72559
1464.08	-0.298712
1464.35	-0.298809
1464.61	2.75925
1464.88	0.716186
1465.14	2.754
1465.41	-3.36827
1465.67	1.73002
1465.94	1.72752
1466.21	0.704461
1466.47	-1.3385
1466.74	0.696648
1467	0.691524
1467.27	-1.35128
1467.54	-0.335683
1467.8	-2.37675
1468.07	1.696
1468.33	-2.38247
1468.6	0.669087
1468.86	0.665346
1469.13	0.662581
1469.39	-1.37617
1469.66	-0.359962
1469.93	1.67438
1470.19	0.653472
1470.46	0.649736
1470.72	1.66368
1470.99	0.642384
1471.25	1.65727
1471.52	2.67315
1471.79	0.637412
1472.05	1.65461
1472.32	-2.41814
1472.58	-0.384534
1472.85	-1.40511
1473.11	2.66191
1473.38	2.65856
1473.64	0.620662
1473.91	0.616748
1474.17	-0.404429
1474.44	-0.407298
1474.71	-0.409463
1474.97	-0.411472
1475.24	0.602232
1475.5	-0.418867
1475.77	-0.422564
1476.03	0.590126
1476.3	-3.47872
1476.56	-0.43437
1476.83	0.57685
1477.09	0.572126
1477.36	1.5806
1477.62	-0.455462
1477.89	-2.48931
1478.15	0.551826
1478.42	-1.48116
1478.68	1.56181
1478.95	1.56262
1479.22	1.56382
1479.48	0.550285
1479.75	3.59678
1480.01	-0.465821
1480.28	2.58031
1480.54	0.548924
1480.81	0.547407
1481.07	-1.48553
1481.34	1.55318
1481.6	0.528629
1481.87	2.53871
1482.13	0.490297
1482.4	-1.54161
1482.66	-1.55414
1482.93	0.499636
1483.19	1.51587
1483.46	0.507504
1483.72	-0.523196
1483.99	-2.54422
1484.25	0.496508
1484.52	1.50371
1484.78	-1.54017
1485.05	-3.56896
1485.31	0.478136
1485.58	0.47341
1485.84	0.468307
1486.11	2.48787
1486.37	1.47267
1486.64	0.458055
1486.9	-1.56787
1487.17	3.48883
1487.43	0.452186
1487.7	0.448956
1487.96	0.444554
1488.22	1.45126
1488.49	1.44823
1488.75	0.435008
1489.02	0.433422
1489.28	0.432637
1489.55	-0.58033
1489.81	-0.582537
1490.08	0.426426
1490.34	0.424986
1490.61	-1.59925
1490.87	1.43125
1491.14	1.42996
1491.4	0.418597
1491.67	-0.592523
1491.93	-0.594419
1492.19	1.42369
1492.46	-2.62432
1492.72	2.42088
1492.99	1.40475
1493.25	-1.62858
1493.52	-1.63173
1493.78	-0.625217
1494.05	-0.628563
1494.31	-0.63009
1494.58	-1.64083
1494.84	0.375484
1495.1	-1.64463
1495.37	1.38171
1495.63	-1.64701
1495.9	-0.638687
1496.16	-3.66738
1496.43	3.39753
1496.69	3.39774
1496.96	1.37886
1497.22	1.37813
1497.48	-0.642453
1497.75	-1.65379
1498.01	2.38263
1498.28	-0.648572
1498.54	0.356642
1498.81	-0.654747
1499.07	1.36184
1499.34	0.350871
1499.6	0.348333
1499.86	1.35283
1500.13	1.34838
1500.39	1.34543
1500.66	-1.68365
1500.92	0.331563
1501.18	-2.69343
1501.45	3.35654
1501.71	0.330137
1501.98	-2.69693
1502.24	-0.682664
1502.5	-0.685884
1502.77	2.33296
1503.03	-1.70444
1503.3	0.308414
1503.56	-0.700622
1503.83	-0.701361
1504.09	-0.70045
1504.35	1.31422
1504.62	0.306102
1504.88	0.304893
1505.15	-0.704835
1505.41	-0.706741
1505.67	0.299981
1505.94	-1.71584
1506.2	1.30622
1506.47	-0.710357
1506.73	1.30373
1506.99	2.31199
1507.26	-0.711176
1507.52	2.30806
1507.78	1.29645
1508.05	1.29181
1508.31	-1.7343
1508.58	3.29253
1508.84	-1.74779
1509.1	1.26116
1509.37	-0.757467
1509.63	0.240362
1509.9	1.2399
1510.16	0.231262
1510.42	3.23923
1510.69	-1.78243
1510.95	0.227344
1511.21	4.24986
1511.48	-0.771756
1511.74	0.230251
1512.01	-2.78653
1512.27	1.22525
1512.53	1.22047
1512.8	0.211493
1513.06	4.21871
1513.32	-0.800644
1513.59	-2.80845
1513.85	0.19789
1514.11	1.19871
1514.38	0.194786
1514.64	0.194163
1514.9	3.20245
1515.17	-0.806827
1515.43	-0.80685
1515.7	-0.806722
1515.96	2.20251
1516.22	-0.806367
1516.49	0.197146
1516.75	-1.80951
1517.01	0.196026
1517.28	-0.809203
1517.54	-0.810928
1517.8	2.19858
1518.07	0.192873
1518.33	1.19682
1518.59	3.20349
1518.86	1.19537
1519.12	1.19331
1519.38	1.19091
1519.65	-0.817754
1519.91	-0.819857
1520.17	-2.82832
1520.44	-0.827356
1520.7	-1.83538
1520.96	2.16801
1521.23	-0.841072
1521.49	-2.847
1521.75	1.15581
1522.02	0.155384
1522.28	-0.845995
1522.54	1.15691
1522.81	0.156843
1523.07	-0.842908
1523.33	0.162169
1523.59	1.1669
1523.86	-0.837141
1524.12	1.16682
1524.38	0.161823
1524.65	-0.841825
1524.91	0.15861
1525.17	-0.845095
1525.44	2.15849
1525.7	0.152628
1525.96	0.150812
1526.23	3.15453
1526.49	-1.85442
1526.75	0.147489
1527.02	0.144658
1527.28	2.14622
1527.54	-0.857141
1527.8	0.146791
1528.07	0.149337
1528.33	0.151187
1528.59	-0.850906
1528.86	-0.852246
1529.12	0.149823
1529.38	1.14927
1529.64	0.148638
1529.91	-1.85246
1530.17	1.15948
1530.43	-0.841835
1530.69	1.16588
1530.96	-1.84264
1531.22	-1.84306
1531.48	0.162138
1531.75	-1.84534
1532.01	-0.84405
1532.27	0.15732
1532.53	2.15981
1532.8	-0.855249
1533.06	3.14781
1533.32	1.14042
1533.59	-0.867719
1533.85	-0.872963
1534.11	0.122894
1534.37	4.12262
1534.64	0.117033
1534.9	4.11809
1535.16	2.11413
1535.42	0.109195
1535.69	-1.89171
1535.95	0.10583
1536.21	-0.890389
1536.48	-1.88331
1536.74	0.127797
1537	0.134998
1537.26	0.140878
1537.53	-0.855309
1537.79	0.150971
1538.05	-0.850092
1538.31	0.146502
1538.58	2.15061
1538.84	-1.86247
1539.1	0.13814
1539.36	3.13933
1539.62	-1.87201
1539.89	1.12851
1540.15	-1.8778
1540.41	2.1219
1540.67	0.115872
1540.94	-1.88931
1541.2	-0.888702
1541.46	-2.88824
1541.72	3.11614
1541.98	-0.881136
1542.25	3.12517
1542.51	-3.87664
1542.77	2.13458
1543.03	2.13673
1543.3	-0.866479
1543.56	-1.86893
1543.82	1.13682
1544.08	-0.864998
1544.35	0.138599
1544.61	1.1424
1544.87	-0.864355
1545.13	0.129849
1545.39	0.129976
1545.66	-1.87221
1545.92	-0.866179
1546.18	1.12331
1546.44	1.10724
1546.71	1.10361
1546.97	2.11224
1547.23	-0.874116
1547.49	-0.853426
1547.75	1.16858
1548.02	-1.82926
1548.28	1.17419
1548.54	1.17602
1548.8	0.169393
1549.06	1.1683
1549.33	2.17936
1549.59	0.177749
1549.85	-0.828243
1550.11	0.172523
1550.37	2.16862
1550.64	0.159884
1550.9	1.16207
1551.16	-0.84649
1551.42	-0.850036
1551.68	0.148079
1551.94	1.14507
1552.21	1.1434
1552.47	1.14266
1552.73	0.141151
1552.99	-0.859406
1553.25	2.14657
1553.52	1.14268
1553.78	4.14814
1554.04	0.142833
1554.3	1.14583
1554.56	0.144702
1554.82	-0.857434
1555.09	2.14526
1555.35	4.14294
1555.61	0.134804
1555.87	0.130322
1556.13	-1.87444
1556.39	2.1231
1556.65	-3.8794
1556.92	0.118035
1557.18	-2.88229
1557.44	0.115358
1557.7	-2.88352
1557.96	1.11356
1558.22	3.11251
1558.49	-0.883396
1558.75	-1.88005
1559.01	1.12328
1559.27	-0.87178
1559.53	2.12933
1559.79	1.12895
1560.05	1.12817
1560.32	0.129422
1560.58	-2.87139
1560.84	2.12792
1561.1	1.13389
1561.36	-1.86141
1561.62	0.142288
1561.88	0.141978
1562.15	-0.865209
1562.41	0.110425
1562.67	-1.91602
1562.93	2.04607
1563.19	0.116975
1563.45	-0.864465
1563.71	1.12847
1563.98	1.11843
1564.24	0.131739
1564.5	2.1467
1564.76	0.143084
1565.02	3.13227
1565.28	0.135758
1565.54	0.138455
1565.8	1.14014
1566.07	1.13945
1566.33	-0.864594
1566.59	3.13031
1566.85	-0.866085
1567.11	1.13445
1567.37	4.13371
1567.63	-0.862394
1567.89	-0.861934
1568.15	0.137553
1568.42	-0.862267
1568.68	0.135487
1568.94	2.13148
1569.2	-3.8617
1569.46	3.12924
1569.72	-3.86351
1569.98	1.12794
1570.24	1.12654
1570.5	0.126633
1570.77	0.125352
1571.03	1.12441
1571.29	1.12796
1571.55	-0.864563
1571.81	2.13545
1572.07	0.142572
1572.33	-0.852321
1572.59	0.150314
1572.85	0.15187
1573.11	0.151648
1573.37	2.15083
1573.64	1.15068
1573.9	1.14672
1574.16	-0.855289
1574.42	-1.8574
1574.68	1.13256
1574.94	1.12853
1575.2	0.127637
1575.46	3.11683
1575.72	1.12279
1575.98	2.12046
1576.24	0.127377
1576.5	-1.86545
1576.76	0.130121
1577.03	-1.86113
1577.29	0.135104
1577.55	1.13354
1577.81	-2.85487
1578.07	0.135969
1578.33	0.134639
1578.59	0.133718
1578.85	-2.85797
1579.11	3.11875
1579.37	1.12584
1579.63	0.129507
1579.89	1.1255
1580.15	2.12168
1580.41	0.130038
1580.67	-0.865361
1580.93	0.130213
1581.19	-0.86478
1581.46	2.12546
1581.72	1.13147
1581.98	0.136989
1582.24	-0.858239
1582.5	4.12234
1582.76	2.13084
1583.02	2.13034
1583.28	1.13187
1583.54	-0.861813
1583.8	1.12742
1584.06	1.12643
1584.32	0.130786
1584.58	0.13061
1584.84	1.12588
1585.1	0.132131
1585.36	1.12936
1585.62	4.11751
1585.88	1.1355
1586.14	1.13847
1586.4	2.13702
1586.66	0.148451
1586.92	1.1457
1587.18	0.151118
1587.44	-1.83805
1587.7	-0.839667
1587.96	0.15864
1588.22	2.15111
1588.48	0.160385
1588.74	-1.83107
1589	0.160235
1589.26	1.1537
1589.52	-0.840369
1589.78	-0.842368
1590.04	-2.83281
1590.3	-1.84136
1590.56	-0.851032
1590.82	1.13186
1591.08	-0.857678
1591.34	1.12816
1591.6	1.12931
1591.86	1.13228
1592.12	3.12368
1592.38	1.1398
1592.64	0.147454
1592.9	-0.851187
1593.16	1.13617
1593.42	1.13735
1593.68	0.145455
1593.94	1.14046
1594.2	-0.843921
1594.46	2.13871
1594.72	0.154359
1594.98	0.155248
1595.24	-0.838269
1595.5	1.14702
1595.76	2.13706
1596.02	0.14894
1596.28	1.14003
1596.54	-0.845999
1596.8	-0.846995
1597.06	-0.848
1597.32	-0.848912
1597.58	3.11642
1597.84	2.12205
1598.1	0.136065
1598.36	0.132621
1598.62	0.129276
1598.88	1.11691
1599.14	0.125021
1599.4	-0.86627
1599.66	1.11135
1599.92	5.06636
1600.18	2.09601
1600.44	-0.872554
1600.7	1.10472
1600.96	-0.872738
1601.22	-0.871742
1601.48	0.118524
1601.73	1.10902
1601.99	4.07682
1602.25	-0.865426
1602.51	1.11403
1602.77	2.10551
1603.03	-1.84736
1603.29	0.133879
1603.55	2.11562
1603.81	1.12928
1604.07	-0.846988
1604.33	1.13371
1604.59	1.13487
1604.85	-1.83267
1605.11	2.12621
1605.37	2.12733
1605.63	-0.839786
1605.89	1.13918
1606.14	0.147627
1606.4	1.13338
1606.66	-0.846084
1606.92	1.12794
1607.18	1.12268
1607.44	1.07151
1607.7	-2.73795
1607.96	0.121281
1608.22	1.01036
1608.48	2.94414
1608.74	1.15464
1609	-0.645774
1609.26	1.10306
1609.51	-1.40042
1609.77	2.87568
1610.03	0.421642
1610.29	-1.01216
1610.55	-0.946985
1610.81	2.56369
1611.07	1.86234
1611.33	0.25595
1611.59	0.927651
1611.85	0.368667
1612.11	0.486509
1612.36	0.963661
1612.62	0.0698328
1612.88	0.982473
1613.14	2.19105
1613.4	-0.192918
1613.66	0.514874
1613.92	1.03562
1614.18	1.15035
1614.44	-0.0204229
1614.7	0.688543
1614.95	0.56365
1615.21	-0.146065
1615.47	0.297732
1615.73	2.61458
1615.99	1.27329
1616.25	0.273863
1616.51	-1.15433
1616.77	1.80678
1617.03	0.803631
1617.28	1.75874
1617.54	0.897046
1617.8	-0.948304
1618.06	0.474827
1618.32	1.97806
1618.58	-0.300267
1618.84	1.49894
1619.1	1.58422
1619.35	0.186375
1619.61	0.671947
1619.87	-0.688695
1620.13	0.866455
1620.39	0.725427
1620.65	0.919897
1620.91	0.315347
1621.17	1.5525
1621.42	0.0624847
1621.68	-0.870242
1621.94	0.687201
1622.2	1.78388
1622.46	0.435076
1622.72	-0.240916
1622.98	0.798038
1623.23	0.227215
1623.49	1.79314
1623.75	0.939844
1624.01	1.28859
1624.27	2.22672
1624.53	1.31838
1624.79	-1.01254
1625.04	1.38538
1625.3	0.102158
1625.56	1.07676
1625.82	2.21629
1626.08	2.83075
1626.34	1.69482
1626.59	1.62514
1626.85	0.236701
1627.11	3.29565
1627.37	1.85176
1627.63	0.215885
1627.89	0.886602
1628.14	0.0535975
1628.4	-0.0964003
1628.66	3.34626
1628.92	1.87244
1629.18	2.43561
1629.44	0.125372
1629.69	0.805682
1629.95	-2.53145
1630.21	-0.385701
1630.47	1.61264
1630.73	-0.604836
1630.99	1.3971
1631.24	1.02269
1631.29	0.867694
1631.55	-0.116148
1631.81	1.85666
1632.07	0.87186
1632.33	-1.09885
1632.59	0.872668
1632.86	1.8581
1633.12	0.872252
1633.38	0.871669
1633.64	1.85617
1633.9	1.85518
1634.16	-0.115916
1634.42	0.867799
1634.68	1.85254
1634.95	-0.11617
1635.21	1.85271
1635.47	-0.116403
1635.73	-1.10023
1635.99	1.85415
1636.25	3.82405
1636.51	0.872056
1636.77	2.84185
1637.03	2.84267
1637.3	0.874764
1637.56	3.83035
1637.82	-0.103565
1638.08	3.83796
1638.34	1.86994
1638.6	2.8544
1638.86	1.86949
1639.12	0.885201
1639.39	1.87013
1639.65	2.855
1639.91	0.886868
1640.17	1.87186
1640.43	1.87285
1640.69	-2.06364
1640.95	0.889034
1641.21	2.85669
1641.47	-0.0966759
1641.73	-0.0967131
1641.99	2.85539
1642.25	2.8588
1642.52	1.87761
1642.78	0.896073
1643.04	1.88091
1643.3	-1.0715
1643.56	2.86363
1643.82	-0.0880928
1644.08	0.896115
1644.34	1.879
1644.6	1.8788
1644.86	2.86188
1645.12	1.87988
1645.38	0.898226
1645.65	0.902464
1645.91	2.87431
1646.17	-1.05218
1646.43	-1.05126
1646.69	1.9022
1646.95	2.8856
1647.21	0.918961
1647.47	-1.04376
1647.73	-1.04048
1647.99	1.91864
1648.25	1.92268
1648.51	-0.0452213
1648.77	-0.0435276
1649.03	2.91397
1649.29	2.91526
1649.55	0.946288
1649.82	2.916
1650.08	-0.0403805
1650.34	5.87169
1650.6	4.88796
1650.86	1.9343
1651.12	2.92266
1651.38	-0.0317574
1651.64	2.92655
1651.9	-0.0277634
1652.16	-1.01039
1652.42	1.95151
1652.68	0.971255
1652.94	1.96425
1653.2	0.981819
1653.46	1.97204
1653.72	0.987311
1653.98	0.988944
1654.24	1.97656
1654.5	0.00225639
1654.76	-2.95866
1655.02	2.96285
1655.28	0.989151
1655.54	1.97528
1655.81	0.00120544
1656.07	0.000388145
1656.33	2.9582
1656.58	-0.98737
1656.84	1.96943
1657.11	-0.988917
1657.37	-0.000715256
1657.63	0.98828
1657.89	1.97796
1658.15	0.00923538
1658.41	4.94583
1658.67	1.98995
1658.93	1.00614
1659.19	1.00305
1659.45	1.98927
1659.71	2.017
1659.97	-1.92808
1660.23	3.00961
1660.49	2.02217
1660.75	-0.954259
1661.01	1.99252
1661.27	-0.954825
1661.53	-0.951635
1661.79	3.00218
1662.05	0.0475607
1662.31	1.03529
1662.57	1.01473
1662.83	2.99667
1663.09	1.05095
1663.35	1.05235
1663.61	0.0665569
1663.87	1.01095
1664.13	1.00609
1664.39	3.00747
1664.65	2.01805
1664.91	3.00408
1665.17	2.01619
1665.43	-0.94444
1665.69	2.01799
1665.95	2.02836
1666.21	3.02341
1666.47	3.02569
1666.72	2.03952
1666.99	2.04125
1667.25	1.05182
1667.51	2.04325
1667.76	3.04202
1668.02	0.079792
1668.28	-0.908998
1668.54	2.05648
1668.8	2.05686
1669.06	1.07097
1669.32	-0.903996
1669.58	1.07452
1669.84	1.07533
1670.1	3.05359
1670.36	1.07812
1670.62	-0.897327
1670.88	5.03686
1671.14	1.08488
1671.4	1.08805
1671.66	4.05801
1671.92	-0.884521
1672.18	1.09803
1672.44	0.111423
1672.7	0.113544
1672.96	2.09377
1673.22	1.10499
1673.48	1.10685
1673.74	0.118924
1674	3.08953
1674.25	1.1107
1674.51	0.121135
1674.77	0.120854
1675.03	1.10921
1675.29	0.118055
1675.55	0.116147
1675.81	2.09258
1676.07	2.09163
1676.33	1.10227
1676.59	2.09071
1676.85	3.0785
1677.11	0.112985
1677.37	1.10126
1677.63	-1.86367
1677.89	0.112304
1678.15	-0.875719
1678.4	1.10067
1678.66	0.113589
1678.92	0.114523
1679.18	5.05514
1679.44	2.09261
1679.7	2.09378
1679.96	1.10626
1680.22	2.09481
1680.48	3.08355
1680.74	-0.867015
1681	1.1092
1681.25	-0.866551
1681.51	1.10799
1681.77	-0.867185
1682.03	0.120728
1682.29	1.1088
1682.55	2.09703
1682.81	2.09801
1683.07	1.1117
1683.33	1.11321
1683.59	0.128322
1683.84	-0.856093
1684.1	0.133838
1684.36	0.134761
1684.62	0.134559
1684.88	3.09704
1685.14	-0.8541
1685.4	3.09563
1685.66	0.13258
1685.92	-0.85597
1686.18	-0.85748
1686.43	0.128201
1686.69	-0.85991
1686.95	1.11138
1687.21	2.09548
1687.47	0.124903
1687.73	1.1149
1687.99	-1.84233
1688.25	0.132979
1688.51	2.10803
1688.76	2.11114
1689.02	3.09995
1689.28	2.11372
1689.54	2.11359
1689.8	0.138396
1690.06	2.10979
1690.32	2.107
1690.58	2.10362
1690.84	1.11413
1691.09	3.08385
1691.35	2.09593
1691.61	0.12344
1691.87	1.10769
1692.13	1.10898
1692.39	1.1109
1692.64	1.11256
1692.9	1.11437
1693.16	-0.854252
1693.42	3.09048
1693.68	-0.849576
1693.94	0.136392
1694.2	1.12112
1694.46	3.08933
1694.71	1.11599
1694.97	3.08248
1695.23	0.126792
1695.49	3.07832
1695.75	0.124179
1696.01	1.10743
1696.26	1.1075
1696.52	0.124319
1696.78	1.11
1697.04	0.126926
1697.3	0.127577
1697.56	3.07753
1697.81	0.126547
1698.07	1.11052
1698.33	1.11047
1698.59	-1.84094
1698.85	0.12475
1699.11	2.08942
1699.37	0.121399
1699.62	2.08535
1699.88	-0.864212
1700.14	2.08399
1700.4	-0.863565
1700.66	1.10146
1700.91	-1.84631
1701.17	2.08409
1701.43	2.08655
1701.69	2.08903
1701.95	-2.8233
1702.21	0.124821
1702.46	-2.82265
1702.72	2.09111
1702.98	0.126204
1703.24	3.07183
1703.5	2.08693
1703.75	0.12025
1704.01	1.09936
1704.27	1.0968
1704.53	3.05674
1704.79	-1.85168
1705.04	0.106749
1705.3	-0.876935
1705.56	0.0996981
1705.82	1.07534
1706.08	-0.886765
1706.33	-1.86764
1706.59	0.0897207
1706.85	0.0897903
1707.11	0.090538
1707.37	1.07059
1707.62	-0.886083
1707.88	2.05349
1708.14	2.05629
1708.4	1.07918
1708.66	-0.877629
1708.91	0.103462
1709.17	0.104061
1709.43	-0.87651
1709.69	-1.85885
1709.95	1.07306
1710.2	3.02383
1710.46	0.0853777
1710.72	0.0806627
1710.98	1.05447
1711.23	0.0759649
1711.49	0.0751324
1711.75	1.05158
1712.01	0.0748949
1712.27	0.0756674
1712.52	0.079958
1712.78	0.0824633
1713.04	0.0827904
1713.3	0.0822477
1713.55	2.03446
1713.81	-0.898078
1714.07	2.02782
1714.33	0.0710802
1714.58	0.0659266
1714.84	2.00981
1715.1	0.0553741
1715.36	2.97347
1715.61	0.0477114
1715.87	1.99328
1716.13	2.96617
1716.39	0.0460987
1716.64	0.0464725
1716.9	1.99343
1717.16	-0.924814
1717.42	0.0494184
1717.68	0.0484791
1717.93	1.01991
1718.19	-0.929794
1718.45	0.0417299
1718.71	1.98495
1718.96	-1.90772
1719.22	0.0345526
1719.48	0.0318356
1719.74	1.00091
1719.99	1.96982
1720.25	0.0247974
1720.51	-0.947728
1720.76	2.93592
1721.02	-1.91841
1721.28	1.96477
1721.54	1.96485
1721.79	0.991762
1722.05	0.988323
1722.31	0.0130835
1722.56	1.94861
1722.82	0.0050354
1723.08	2.91039
1723.34	0.971738
1723.59	-0.964708
1723.85	-1.93443
1724.11	0.001791
1724.37	-0.0018034
1724.62	-0.000263214
1724.88	2.9094
1725.14	0.970912
1725.39	1.93696
1725.65	1.92841
1725.91	-0.0262022
1726.17	-1.00801
1726.42	-1.97526
1726.68	-0.0369272
1726.94	-0.995825
1727.19	0.938542
1727.45	-0.999476
1727.71	-0.0362473
1727.96	-0.997851
1728.22	0.945734
1728.48	-0.0192785
1728.74	-0.984989
1728.99	-0.984728
1729.25	-1.95133
1729.51	-0.985514
1729.76	-0.986329
1730.02	-0.987703
1730.28	-0.0242062
1730.53	0.93754
1730.79	-0.0327835
1731.05	-0.0370913
1731.3	-0.0404701
1731.56	-1.00807
1731.82	-0.0476208
1732.08	-0.0512428
1732.33	-0.05476
1732.59	-0.0575027
1732.85	0.90322
1733.1	0.902021
1733.36	1.86386
1733.62	0.900366
1733.87	2.82363
1734.13	-2.95067
1734.39	0.89633
1734.64	-0.0666599
1734.9	1.85559
1735.16	-0.0697489
1735.41	-0.0719328
1735.67	0.887093
1735.93	-3.91995
1736.18	0.881756
1736.44	0.878064
1736.7	-0.087081
1736.95	-0.0923967
1737.21	0.861995
1737.47	0.857436
1737.72	1.81247
1737.98	2.76792
1738.24	-1.06746
1738.49	-0.111596
1738.75	-0.113626
1739.01	0.842586
1739.26	-1.073
1739.52	0.841843
1739.78	-0.116302
1740.03	-1.07422
1740.29	-2.98856
1740.54	0.840428
1740.8	-1.07498
1741.06	-2.99076
1741.31	-1.07828
1741.57	1.78994
1741.83	0.8336
1742.08	1.7907
1742.34	-0.121427
1742.6	0.835524
1742.85	0.835137
1743.11	0.833628
1743.36	-1.08107
1743.62	2.7395
1743.88	-0.131465
1744.13	0.821867
1744.39	-0.137145
1744.65	0.815822
1744.9	-2.05101
1745.16	-0.141974
1745.42	-1.0961
1745.67	0.813863
1745.93	-0.13951
1746.18	-1.09266
1746.44	0.819137
1746.7	-0.132871
1746.95	-0.129605
1747.21	-0.126019
1747.46	0.833248
1747.72	-0.1193
1747.98	-1.07392
1748.23	-0.115902
1748.49	-0.115524
1748.74	-1.07309
1749	0.834776
1749.26	1.78649
1749.51	-2.03641
1749.77	2.73598
1750.02	-2.99489
1750.28	2.73
1750.54	-0.135105
1750.79	0.817348
1751.05	-2.04632
1751.31	0.812839
1751.56	-1.09654
1751.82	-0.144391
1752.07	-0.145597
1752.33	0.806562
1752.59	1.75818
1752.84	-0.149665
1753.1	0.800598
1753.35	0.7976
1753.61	-0.157935
1753.86	-0.161617
1754.12	-0.165143
1754.38	-1.11904
1754.63	0.782327
1754.89	-2.07143
1755.14	0.784255
1755.4	-1.11482
1755.66	-1.11342
1755.91	0.790445
1756.17	-0.160433
1756.42	1.74364
1756.68	-0.158625
1756.93	-2.06175
1757.19	1.744
1757.44	3.6461
1757.7	0.790882
1757.96	1.74084
1758.21	1.73875
1758.47	-0.165416
1758.72	-3.01918
1758.98	-0.16789
1759.23	1.73269
1759.49	0.783149
1759.75	0.785849
1760	1.73839
1760.26	-0.162859
1760.51	1.73901
1760.77	-1.11237
1761.02	0.790977
1761.28	-2.06004
1761.53	0.797717
1761.79	-3.00415
1762.05	1.75676
1762.3	2.71095
1762.56	0.80889
1762.81	-0.141797
1763.07	-1.09302
1763.32	0.811529
1763.58	0.811379
1763.83	1.76255
1764.09	-1.09321
1764.34	-0.141295
1764.6	0.809751
1764.85	-0.143618
1765.11	-1.09623
1765.37	0.805333
1765.62	0.805545
1765.88	0.803612
1766.13	-0.153646
1766.39	-1.11006
1766.64	0.783319
1766.9	-2.06734
1767.15	-0.167061
1767.41	-0.162199
1767.66	-2.06015
1767.92	-0.159226
1768.17	-0.157466
1768.43	1.74873
1768.68	-1.09859
1768.94	2.70596
1769.19	-0.14505
1769.45	-0.14205
1769.7	0.812452
1769.96	1.76634
1770.21	-1.08624
1770.47	-0.13264
1770.72	1.77281
1770.98	0.822753
1771.23	-0.12772
1771.49	-0.126552
1771.74	0.82681
1772	-1.07513
1772.26	1.78333
1772.51	1.78741
1772.76	0.841805
1773.02	0.845104
1773.27	-0.106318
1773.53	1.80099
1773.78	-0.106134
1774.04	3.70503
1774.29	-0.109186
1774.55	-1.0631
1774.8	2.74593
1775.06	1.79103
1775.31	-0.115972
1775.57	-1.07012
1775.82	-0.120424
1776.08	0.828234
1776.33	-0.126271
1776.59	-0.127384
1776.84	-0.126023
1777.1	-1.07411
1777.35	-1.07285
1777.61	-0.119645
1777.86	-0.117981
1778.12	-0.116486
1778.37	0.836338
1778.63	-0.114469
1778.88	0.839526
1779.13	-1.06261
1779.39	2.75009
1779.65	2.75392
1779.9	1.80381
1780.15	1.80601
1780.41	-2.0041
1780.66	0.857451
1780.92	-0.0935335
1781.17	1.81593
1781.43	1.8195
1781.68	-1.99234
1781.94	2.77991
1782.19	-1.03516
1782.45	0.873327
1782.7	0.872825
1782.95	-0.082202
1783.21	-1.03651
1783.46	-1.03563
1783.72	1.82826
1783.97	1.83138
1784.23	0.880886
1784.48	-1.97867
1784.74	0.892329
1784.99	0.901366
1785.24	0.911006
1785.5	-0.0372725
1785.75	0.924799
1786.01	-0.029686
1786.26	0.932446
1786.52	-1.93659
1786.77	-0.975519
1787.03	-0.97355
1787.28	-0.0127821
1787.54	-3.8458
1787.79	0.94781
1788.04	-0.0108414
1788.3	-0.0164719
1788.55	-0.978936
1788.81	-0.0220613
1789.06	-1.93772
1789.31	-0.979237
1789.57	1.89476
1789.82	-0.0190001
1790.08	-0.0170965
1790.33	1.90049
1790.59	-0.0154018
1790.84	0.944358
1791.09	0.945928
1791.35	0.947232
1791.6	0.946194
1791.86	0.94513
1792.11	0.953453
1792.36	0.00456238
1792.62	0.0106363
1792.87	-0.946107
1793.13	0.976575
1793.38	0.0193634
1793.64	0.0223188
1793.89	-0.935234
1794.14	0.989369
1794.4	2.91446
1794.65	0.0337954
1794.9	0.997204
1795.16	0.0377636
1795.41	1.00085
1795.67	2.92513
1795.92	-0.920855
1796.17	-1.88281
1796.43	1.96178
1796.68	1.95964
1796.94	0.995974
1797.19	0.0332241
1797.44	0.0318489
1797.7	0.0308475
1797.95	1.95133
1798.21	-0.930532
1798.46	0.0300951
1798.71	0.99119
1798.97	-0.928834
1799.22	0.0331678
1799.47	-0.92575
1799.73	1.9591
1799.98	0.0400963
1800.24	1.96581
1800.49	0.0465755
1800.74	-0.912617
1801	0.0503168
1801.25	0.0514498
1801.5	0.0540676
1801.76	1.01919
1802.01	0.0598803
1802.27	-2.82413
1802.52	0.0672731
1802.77	0.0708876
1803.03	0.074007
1803.28	2.00346
1803.53	1.04269
1803.79	0.0812407
1804.04	1.04636
1804.29	2.01086
1804.55	-0.880015
1804.8	2.01187
1805.05	1.04872
1805.31	-0.878269
1805.56	1.05025
1805.81	-1.84061
1806.07	2.01608
1806.32	-0.87489
1806.58	-3.76616
1806.83	-0.873065
1807.08	1.05611
1807.34	1.05696
1807.59	0.093195
1807.84	0.0928202
1808.1	0.0926914
1808.35	0.0929832
1808.6	0.0931072
1808.86	1.0575
1809.11	1.05821
1809.36	1.05962
1809.62	-0.866812
1809.87	-0.864491
1810.12	1.0673
1810.38	-0.860218
1810.63	-0.858764
1810.88	3.00351
1811.14	-0.85288
1811.39	-0.849312
1811.64	1.08664
1811.9	1.09093
1812.15	0.127805
1812.4	1.09629
1812.65	3.03065
1812.91	-1.80062
1813.16	0.133509
1813.41	-1.79871
1813.67	4.00311
1813.92	2.07009
1814.17	1.10342
1814.43	1.09982
1814.68	-0.838541
1814.93	0.125459
1815.19	2.05881
1815.44	2.06243
1815.69	1.101
1815.95	0.135343
1816.2	-0.830608
1816.45	0.137376
1816.7	1.10613
1816.96	-0.825461
1817.21	-0.823839
1817.46	3.04592
1817.72	-0.819796
1817.97	1.11609
1818.22	3.05259
1818.47	3.05543
1818.73	0.155646
1818.98	1.12561
1819.23	0.159714
1819.49	1.12921
1819.74	1.13046
1819.99	-0.804392
1820.24	0.16464
1820.5	0.164305
1820.75	0.163565
1821	-0.805317
1821.26	0.163324
1821.51	0.164931
1821.76	1.13455
1822.01	1.13623
1822.27	0.169871
1822.52	1.14009
1822.77	1.14125
1823.03	1.14176
1823.28	-0.79481
1823.53	1.14299
1823.78	-0.793323
1824.04	-0.792562
1824.29	-0.791159
1824.54	1.14789
1824.79	-1.75654
1825.05	0.182716
1825.3	-1.75514
1825.55	-1.75515
1825.8	-0.787481
1826.06	-0.788823
1826.31	-1.75781
1826.56	0.179344
1826.81	1.1476
1827.07	-0.789706
1827.32	0.177196
1827.57	0.176352
1827.82	-1.76089
1828.08	-1.75982
1828.33	1.14693
1828.58	0.180815
1828.83	1.15162
1829.09	0.185064
1829.34	2.12484
1829.59	0.189526
1829.84	2.13128
1830.1	0.194699
1830.35	2.13345
1830.6	4.07311
1830.85	3.10602
1831.11	1.16789
1831.36	-0.769809
1831.61	-1.74339
1831.86	1.15634
1832.12	1.15012
1832.37	3.07967
1832.62	0.173726
1832.87	-0.796493
1833.13	1.13892
1833.38	2.10883
1833.63	0.236598
1833.88	-0.755382
1834.13	-1.73819
1834.39	0.19646
1834.64	0.186331
1834.89	0.178292
1835.14	0.16504
1835.39	0.15967
1835.65	2.09615
1835.9	0.187679
1836.15	1.16242
1836.4	0.19838
1836.65	1.1692
1836.91	0.202753
1837.16	-0.765705
1837.41	0.190331
1837.66	0.182474
1837.92	1.14241
1838.17	0.16936
1838.42	0.163619
1838.67	2.08972
1838.92	-0.811743
1839.18	1.11426
1839.43	-0.819402
1839.68	1.10746
1839.93	1.10983
1840.18	-3.71343
1840.43	1.11102
1840.69	2.07574
1840.94	3.04031
1841.19	-1.78324
1841.44	-0.817905
1841.7	-3.7103
1841.95	0.148231
1842.2	0.147173
1842.45	0.147994
1842.7	1.11479
1842.95	-1.77411
1843.2	0.162046
1843.46	2.10095
1843.71	-0.793049
1843.96	1.12813
1844.21	1.10695
1844.46	0.127038
1844.72	1.08712
1844.97	0.127284
1845.22	-0.828963
1845.47	0.136403
1845.72	-0.831903
1845.97	1.09216
1846.23	0.129119
1846.48	-0.836024
1846.73	1.0853
1846.98	1.08142
1847.23	0.115366
1847.48	1.07266
1847.74	2.03005
1847.99	1.06597
1848.24	0.102757
1848.49	1.06131
1848.74	-2.78156
1848.99	2.01925
1849.25	2.01915
1849.5	0.0990095
1849.75	0.0994053
1850	-1.82079
1850.25	-0.860711
1850.5	0.098918
1850.75	0.0975227
1851.01	1.05468
1851.26	2.0104
1851.51	1.04653
1851.76	0.0846052
1852.01	-0.875435
1852.26	-0.877401
1852.51	0.0771332
1852.76	1.03173
1853.02	1.03025
1853.27	0.0715656
1853.52	-0.886282
1853.77	0.0720387
1854.02	1.02989
1854.27	1.98728
1854.52	1.98599
1854.78	0.0695438
1855.03	1.98308
1855.28	1.02358
1855.53	0.0639067
1855.78	2.9317
1856.03	0.0585632
1856.28	1.01201
1856.53	1.00877
1856.79	-1.86064
1857.04	1.96408
1857.29	1.00816
1857.54	0.0539837
1857.79	-0.899156
1858.04	-0.897105
1858.29	0.0617819
1858.54	1.02162
1858.79	1.02379
1859.04	1.98134
1859.3	1.02354
1859.55	-0.892134
1859.8	-0.894521
1860.05	1.97177
1860.3	0.0564842
1860.55	-0.901995
1860.8	0.0514765
1861.05	0.049387
1861.3	2.91324
1861.56	1.00059
1861.81	-0.911549
1862.06	-1.8686
1862.31	-0.916815
1862.56	2.89657
1862.81	0.983697
1863.06	0.0249376
1863.31	1.92595
1863.56	1.91986
1863.81	-0.942734
1864.06	-0.947487
1864.32	-1.90346
1864.57	-0.00490952
1864.82	-1.90972
1865.07	-0.00931072
1865.32	-0.0103312
1865.57	1.89059
1865.82	-2.86175
1866.07	-0.00870705
1866.32	0.941819
1866.57	-0.95996
1866.82	-0.00982571
1867.07	0.94031
1867.32	-1.91152
1867.57	0.939574
1867.83	1.8898
1868.08	1.88983
1868.33	-0.0108891
1868.58	0.938484
1868.83	0.937064
1869.08	1.88485
1869.33	0.933807
1869.58	-0.967012
1869.83	-0.019618
1870.08	1.87705
1870.33	1.87577
1870.58	-0.972286
1870.83	-0.973201
1871.08	-0.0257597
1871.33	0.920802
1871.58	0.917907
1871.84	1.86305
1872.08	-3.8294
1872.33	-0.987951
1872.59	1.85163
1872.84	0.898676
1873.09	1.83808
1873.34	-0.0591278
1873.59	-0.0625467
1873.84	-0.0649996
1874.09	-1.01306
1874.34	-0.0744619
1874.59	-0.0835342
1874.84	-0.0932589
1875.09	-0.0711107
1875.34	-0.983072
1875.59	-0.0580416
1875.84	1.83243
1876.09	0.888526
1876.34	0.901758
1876.59	-0.989841
1876.84	-0.994008
1877.09	1.84397
1877.34	0.896974
1877.59	-0.0494633
1877.84	0.899375
1878.09	-0.99673
1878.34	-0.998049
1878.59	0.889012
1878.84	1.82807
1879.09	1.82081
1879.34	4.647
1879.59	0.860073
1879.84	1.79589
1880.1	-1.03926
1880.34	0.867476
1880.59	2.81213
1880.84	-2.9165
1881.1	0.836072
1881.34	1.78316
1881.59	-0.0987072
1881.84	-0.101832
1882.1	-1.03903
1882.34	0.852759
1882.59	2.74197
1882.85	-2.91658
1883.1	0.864406
1883.34	0.867541
1883.59	-0.0756779
1883.85	-1.02241
1884.09	-1.02633
1884.34	-0.0850801
1884.59	0.855602
1884.84	-0.0908508
1885.09	0.84901
1885.34	0.844791
1885.59	1.78216
1885.84	-1.99061
1886.09	-0.110511
1886.34	1.76923
1886.59	-0.11478
1886.84	-0.115273
1887.09	-0.115055
1887.34	-1.05442
1887.59	2.71557
1887.84	-1.04899
1888.09	-1.04835
1888.34	-1.04905
1888.59	-1.04942
1888.84	2.71734
1889.09	-2.93366
1889.34	1.77459
1889.59	0.832021
1889.84	-0.111403
1890.09	0.82698
1890.34	-0.11985
1890.59	-1.067
1890.84	-1.0718
1891.09	0.810096
1891.34	-0.131339
1891.59	1.74445
1891.84	-1.07599
1892.09	1.74218
1892.34	2.68256
1892.59	0.804948
1892.83	0.806645
1893.08	0.80849
1893.33	-0.129334
1893.58	1.7534
1893.83	-2.00479
1894.08	-0.122015
1894.33	-0.120286
1894.58	2.70282
1894.83	-1.99986
1895.08	-1.0593
1895.33	1.76168
1895.58	3.64075
1895.83	-0.123328
1896.08	-0.126328
1896.33	0.810516
1896.58	1.74837
1896.83	-1.07173
1897.08	-1.07336
1897.32	-0.134863
1897.57	2.68314
1897.82	-2.01277
1898.07	-1.07182
1898.32	-1.06927
1898.57	1.75288
1898.82	2.69616
1899.07	1.75908
1899.32	-1.05834
1899.57	-1.05656
1899.82	-1.05695
1900.07	0.823358
1900.31	-1.99954
1900.57	-0.11986
1900.81	0.819576
1901.06	-0.121338
1901.31	-0.121696
1901.56	1.75844
1901.81	2.6981
1902.06	-2.00312
1902.31	-0.123096
1902.56	-0.123195
1902.81	-1.06413
1903.06	-0.129367
1903.31	-1.07149
1903.55	0.805658
1903.8	-0.134979
1904.05	2.6812
1904.3	-2.95373
1904.55	2.68143
1904.8	-0.135207
1905.05	-1.07173
1905.3	-0.130481
1905.55	-0.129656
1905.79	0.810893
1906.04	2.69215
1906.29	0.815229
1906.54	-0.121746
1906.79	-2.93918
1907.04	-1.99535
1907.29	2.71322
1907.54	0.836267
1907.79	-1.04293
1908.04	1.78482
1908.28	-1.03878
1908.53	-0.0957575
1908.78	3.67252
1909.03	-1.03758
1909.28	-1.98057
1909.53	-1.98095
1909.78	-0.0973644
1910.03	-0.09723
1910.27	-1.039
1910.52	-1.03823
1910.77	-0.0935946
1911.02	1.79552
1911.27	-1.97084
1911.52	0.860018
1911.77	0.86316
1912.02	0.866133
1912.26	1.8123
1912.51	-1.01678
1912.76	0.870905
1913.01	-1.01696
1913.26	-1.96159
1913.51	0.868651
1913.76	1.80902
1914	0.86299
1914.25	-0.0821428
1914.5	-0.0838757
1914.75	-0.0849361
1915	0.857185
1915.25	-1.02738
1915.49	0.860638
1915.74	-0.0791645
1915.99	0.867918
1916.24	-1.95905
1916.49	-0.0673275
1916.74	0.883171
1916.99	-0.0576124
1917.23	-0.0558243
1917.48	-0.0558672
1917.73	-0.0581179
1917.98	0.889448
1918.23	-1.94236
1918.48	1.84232
1918.72	-0.992926
1918.97	-0.04529
1919.22	0.901124
1919.47	-0.0449944
1919.72	-0.992064
1919.97	-0.0486612
1920.21	0.895084
1920.46	0.893945
1920.71	-0.0524273
1920.96	0.891387
1921.21	-0.0558624
1921.46	-1.94793
1921.7	0.885305
1921.95	0.885112
1922.2	-0.0587673
1922.45	0.888252
1922.7	-0.0537205
1922.94	-1.9406
1923.19	0.899488
1923.44	-0.988968
1923.69	-0.985619
1923.94	2.80421
1924.19	-1.92684
1924.43	0.915342
1924.68	0.917167
1924.93	0.918774
1925.18	1.86752
1925.43	0.921586
1925.67	-0.0248556
1925.92	-1.91823
1926.17	-2.86455
1926.42	0.928648
1926.66	1.88011
1926.91	0.936255
1927.16	-0.957657
1927.41	-0.00520229
1927.66	-0.00226021
1927.91	0.950034
1928.15	-0.948483
1928.4	0.000904083
1928.65	4.74622
1928.9	-0.00241661
1929.15	-0.953375
1929.39	-1.90415
1929.64	0.940694
1929.89	0.938751
1930.14	0.937958
1930.38	1.88499
1930.63	0.938309
1930.88	-0.00586987
1931.13	0.00110626
1931.37	0.0102835
1931.62	0.972974
1931.87	-0.919744
1932.12	-1.86417
1932.37	0.0483131
1932.61	0.0537806
1932.86	0.0545034
1933.11	0.999209
1933.36	-0.907187
1933.61	0.997529
1933.85	1.94809
1934.1	-0.913262
1934.35	0.0361147
1934.6	0.985505
1934.84	0.982513
1935.09	0.0279417
1935.34	0.0257635
1935.59	0.0269728
1935.83	-0.921229
1936.08	-2.82465
1936.33	-0.918453
1936.58	1.94082
1936.82	0.0373268
1937.07	3.85002
1937.32	0.0397606
1937.57	0.996072
1937.81	1.95441
1938.06	0.0551319
1938.31	1.01242
1938.56	-0.897214
1938.8	0.0541916
1939.05	1.95558
1939.3	0.997069
1939.55	3.86742
1939.79	0.0621319
1940.04	1.97313
1940.29	-0.89289
1940.54	-0.898508
1940.78	-0.903762
1941.03	1.00328
1941.28	0.0565157
1941.52	-0.896029
1941.77	0.0611763
1942.02	0.0639658
1942.27	0.0669117
1942.51	1.0254
1942.76	1.02842
1943.01	2.94308
1943.26	1.03324
1943.5	1.99117
1943.75	1.99229
1944	1.03606
1944.24	0.0787468
1944.49	-0.879076
1944.74	2.94463
1944.99	1.98787
1945.23	-0.881207
1945.48	0.074296
1945.73	1.02962
1945.97	-1.83811
1946.22	-0.879869
1946.47	1.99223
1946.71	0.0815401
1946.96	1.04168
1947.21	-0.869076
1947.46	3.9251
1947.7	-0.859391
1947.95	2.02051
1948.2	0.108095
1948.44	0.112982
1948.69	1.07699
1948.94	1.08036
1949.19	1.08253
1949.43	-0.836322
1949.68	3.00613
1949.93	1.08541
1950.17	0.127337
1950.42	-1.79363
1950.67	-0.83714
1950.91	1.07677
1951.16	-1.81042
1951.41	0.100842
1951.65	-1.8228
1951.9	-1.82702
1952.15	0.0873938
1952.39	-1.82871
1952.64	-1.82718
1952.89	2.00999
1953.14	2.01756
1953.38	1.06589
1953.63	1.0696
1953.88	1.07296
1954.12	0.114996
1954.37	1.07804
1954.62	-0.840945
1954.86	-1.80018
1955.11	1.08384
1955.36	0.12359
1955.6	1.08518
1955.85	-2.75992
1956.1	0.121559
1956.34	0.119036
1956.59	0.117602
1956.84	0.116088
1957.08	1.07424
1957.33	1.0716
1957.58	0.108599
1957.82	2.02615
1958.07	1.06295
1958.31	-0.859521
1958.56	1.05776
1958.81	-0.862732
1959.05	2.0164
1959.3	1.05692
1959.55	1.057
1959.79	-0.86256
1960.04	0.0973244
1960.29	-2.78246
1960.53	2.01722
1960.78	-2.78272
1961.03	2.97808
1961.27	2.01929
1961.52	1.05943
1961.77	0.098073
1962.01	2.01745
1962.26	2.01688
1962.5	-1.82464
1962.75	1.0561
1963	0.0971079
1963.24	-1.82193
1963.49	1.06244
1963.74	1.06464
1963.98	-0.856087
1964.23	1.06653
1964.48	-1.81786
1964.72	0.104553
1964.97	2.02763
1965.21	-0.856586
1965.46	1.06615
1965.71	-0.857863
1965.95	0.10135
1966.2	1.05913
1966.44	1.05476
1966.69	-0.871414
1966.94	-0.875687
1967.18	0.080862
1967.43	1.03757
1967.68	-1.84379
1967.92	0.0724649
1968.17	0.0701265
1968.41	-0.891105
1968.66	1.02551
1968.91	1.02418
1969.15	-0.893225
1969.4	-0.892891
1969.64	0.0662422
1969.89	-0.894222
1970.14	-1.85548
1970.38	0.0597982
1970.63	-2.82025
1970.87	1.01214
1971.12	-0.907234
1971.37	-2.82573
1971.61	0.0488501
1971.86	0.0484371
1972.1	1.00698
1972.35	-0.909597
1972.6	-0.908545
1972.84	-0.90738
1973.09	1.01157
1973.33	1.01216
1973.58	1.0122
1973.82	1.97114
1974.07	1.01109
1974.32	-0.908628
1974.56	1.96708
1974.81	1.00542
1975.05	0.0435543
1975.3	0.999513
1975.55	-0.920128
1975.79	0.0365028
1976.04	0.993706
1976.28	0.0347424
1976.53	2.91001
1976.77	1.95078
1977.02	-0.924918
1977.26	1.94989
1977.51	0.0302057
1977.76	2.90176
1978	2.89869
1978.25	0.0226212
1978.49	0.977665
1978.74	0.0179148
1978.98	-0.941369
1979.23	-0.942479
1979.48	0.971389
1979.72	-1.9046
1979.97	0.00746059
1980.21	0.960313
1980.46	0.955466
1980.7	0.952271
1980.95	-0.00603008
1981.19	-0.96437
1981.44	-0.0100088
1981.69	-0.0120945
1981.93	-0.970354
1982.18	-0.973694
1982.42	0.934065
1982.67	0.932442
1982.91	0.932128
1983.16	0.93247
1983.4	-0.978171
1983.65	1.89145
1983.89	2.84742
1984.14	1.88968
1984.38	0.933724
1984.63	0.929006
1984.88	0.923972
1985.12	-0.992511
1985.37	-0.998124
1985.61	-1.00493
1985.86	0.892438
1986.1	-1.02361
1986.35	-0.0786486
1986.59	-2.94265
1986.84	0.861339
1987.08	-1.04531
1987.33	0.857418
1987.57	0.858741
1987.82	0.864423
1988.06	1.81929
1988.31	-0.0832253
1988.55	-1.98601
1988.8	-0.0734177
1989.04	-3.80996
1989.29	-0.0445395
1989.53	0.8705
1989.78	-0.042098
1990.02	0.832108
1990.27	-0.951653
1990.52	-0.0674076
1990.76	0.715445
1991.01	-0.979359
1991.25	-0.120178
1991.49	2.36962
1991.74	-0.901593
1991.99	0.724308
1992.23	-1.62803
1992.47	1.70622
1992.72	1.75913
1992.97	-0.00457001
1993.21	0.768512
1993.45	1.31392
1993.7	0.300253
1993.95	2.09737
1994.19	0.69063
1994.43	0.60283
1994.68	-0.726706
1994.93	1.20301
1995.17	0.638458
1995.41	0.951966
1995.66	0.888322
1995.9	-0.714912
1996.15	0.900588
1996.39	0.551494
1996.64	-0.347864
1996.88	-0.866765
1997.13	0.348258
1997.37	-0.797597
1997.62	-0.00822353
1997.86	1.21336
1998.11	1.79452
1998.35	-1.83335
1998.6	1.60691
1998.84	1.17131
1999.09	-0.0924978
1999.33	0.644685
1999.57	-0.73738
1999.82	0.581273
2000.06	0.671326
2000.31	-0.744923
2000.55	1.12325
2000.8	-0.726876
2001.04	0.222889
2001.29	-0.614981
2001.53	0.655506
2001.78	0.698935
2002.02	-0.73801
2002.27	0.317068
2002.51	0.621018
2002.75	-0.712842
2003	-0.575309
2003.24	0.964586
2003.49	0.0948029
2003.73	-0.00412369
2003.98	0.493519
2004.22	0.597478
2004.47	0.987617
2004.71	1.16727
2004.95	2.09815
2005.2	0.782337
2005.44	0.30017
2005.69	-0.702244
2005.93	-0.577363
2006.18	0.0911064
2006.42	-0.429748
2006.66	0.299943
2006.91	0.323276
2007.15	1.01826
2007.4	0.112864
2007.64	-0.423407
2007.89	0.0888186
2008.13	0.0476942
2008.38	-0.281082
2008.62	-0.909591
2008.86	-0.500678
2009.11	-0.558786
2009.35	0.12187
2009.6	-0.158968
2009.84	-0.00827789
2010.08	-0.30045
2010.33	-1.6106
2010.57	0.0678616
2010.82	2.23681
2011.06	1.35184
2011.3	0.0843029
2011.55	-0.941551
2011.79	-0.630435
2012.04	0.385517
2012.18	0.428408
2012.43	1.36761
2012.68	0.430378
2012.93	1.36993
2013.17	0.429544
2013.42	1.36808
2013.67	-1.44027
2013.91	1.38048
2014.16	-0.500849
2014.41	0.436219
2014.66	-0.507168
2014.9	3.24524
2015.15	-0.517109
2015.4	0.415401
2015.64	0.409584
2015.89	-0.533806
2016.14	0.397863
2016.38	1.32914
2016.63	0.388185
2016.88	1.32223
2017.13	-0.553411
2017.37	-0.554656
2017.62	4.12667
2017.87	1.31535
2018.11	-1.49486
2018.36	-0.558461
2018.61	-0.559332
2018.86	1.3124
2019.1	-0.56289
2019.35	-1.50193
2019.6	2.23999
2019.84	-2.44463
2020.09	-0.576934
2020.34	1.29043
2020.58	2.22178
2020.83	0.347218
2021.08	0.34337
2021.32	0.33978
2021.57	-0.599593
2021.82	-3.40716
2022.06	-2.47745
2022.31	0.318857
2022.56	0.31401
2022.8	1.2424
2023.05	0.304012
2023.3	1.236
2023.54	0.306612
2023.79	-1.55399
2024.04	-0.612583
2024.28	1.26658
2024.53	-1.53346
2024.78	2.20743
2025.02	0.327825
2025.27	-1.55307
2025.52	0.282504
2025.76	-0.627822
2026.01	1.28889
2026.26	0.331966
2026.5	-1.53238
2026.75	1.25478
2027	-0.629875
2027.24	1.22
2027.49	-0.646877
2027.74	-0.659358
2027.98	-0.652393
2028.23	-0.645169
2028.48	1.2178
2028.72	0.283788
2028.97	-0.650503
2029.22	-2.51487
2029.46	1.22174
2029.71	5.89565
2029.96	1.22929
2030.2	0.297329
2030.45	-0.636034
2030.69	1.23624
2030.94	1.23876
2031.19	0.295568
2031.43	-0.64719
2031.68	-0.661444
2031.93	1.19836
2032.17	0.270195
2032.42	0.273155
2032.66	2.14683
2032.91	4.02628
2033.16	0.293096
2033.4	-1.57755
2033.65	-2.51991
2033.9	0.282748
2034.14	-0.649671
2034.39	-0.650889
2034.63	0.282481
2034.88	0.280147
2035.13	0.27744
2035.37	-0.660204
2035.62	1.2059
2035.87	-0.666253
2036.11	1.19917
2036.36	2.12977
2036.6	1.19214
2036.85	-1.61306
2037.1	0.24964
2037.34	1.17811
2037.59	1.17335
2037.83	1.16885
2038.08	0.232226
2038.33	1.16113
2038.57	2.0909
2038.82	-0.707739
2039.06	3.01803
2039.31	0.218884
2039.56	-0.7165
2039.8	1.14435
2040.05	0.211473
2040.3	0.211185
2040.54	0.213131
2040.79	1.14931
2041.03	-1.64446
2041.28	0.222452
2041.52	-0.712047
2041.77	-0.715763
2042.02	-0.721989
2042.26	0.198669
2042.51	-1.65624
2042.75	-0.718597
2043	0.228413
2043.25	-1.62283
2043.49	3.04649
2043.74	-0.707466
2043.98	-1.65116
2044.23	1.14713
2044.47	0.209555
2044.72	-0.73354
2044.97	2.05828
2045.21	1.12513
2045.46	2.0569
2045.7	1.12432
2045.95	-0.740369
2046.19	0.194078
2046.44	-0.737336
2046.69	2.99729
2046.93	1.13472
2047.18	-1.66377
2047.42	0.206121
2047.67	0.207187
2047.91	0.206803
2048.16	0.204986
2048.41	-0.732628
2048.65	0.196593
2048.9	0.194776
2049.14	0.193822
2049.39	0.194368
2049.63	-0.74002
2049.88	-0.739926
2050.12	-1.67347
2050.37	-0.738178
2050.62	-0.736465
2050.86	1.138
2051.11	-1.66605
2051.35	1.14054
2051.6	0.204493
2051.84	1.13851
2052.09	0.201209
2052.33	-0.73598
2052.58	0.194953
2052.82	0.19216
2053.07	-2.6145
2053.31	0.188028
2053.56	0.18536
2053.8	-0.751476
2054.05	0.181853
2054.3	0.181216
2054.54	2.0506
2054.79	2.05114
2055.03	1.11718
2055.28	-0.752599
2055.52	0.184657
2055.77	2.05774
2056.01	-0.747977
2056.26	0.188895
2056.5	-0.747593
2056.75	1.12416
2056.99	0.187391
2057.24	0.184549
2057.48	-1.69039
2057.73	-0.757363
2057.97	1.11466
2058.22	1.11553
2058.46	-0.756557
2058.71	1.11532
2058.95	0.178142
2059.2	1.11366
2059.45	1.11339
2059.69	1.11361
2059.94	0.177695
2060.18	1.11556
2060.43	0.179817
2060.67	-0.756716
2060.92	-0.75655
2061.16	-2.6313
2061.4	-1.69433
2061.65	-0.756866
2061.9	1.11896
2062.14	0.182867
2062.39	3.00002
2062.63	-0.75035
2062.88	-0.748589
2063.12	-0.747348
2063.37	0.192179
2063.61	2.0698
2063.86	1.13073
2064.1	-0.747171
2064.34	-0.747375
2064.59	1.13186
2064.83	0.193308
2065.08	2.07351
2065.32	1.13408
2065.57	-1.68598
2065.81	-0.745678
2066.06	-3.56665
2066.3	-2.62909
2066.55	0.186256
2066.79	1.11902
2067.04	-0.763499
2067.28	0.17537
2067.53	1.11862
2067.77	1.12443
2068.02	0.189832
2068.26	-0.751688
2068.51	0.183956
2068.75	0.194742
2069	2.08449
2069.24	-3.56757
2069.48	2.0803
2069.73	1.13699
2069.97	2.07627
2070.22	-1.69122
2070.46	-0.751414
2070.71	-1.69375
2070.95	0.18858
2071.2	0.188121
2071.44	3.01344
2071.69	0.189463
2071.93	2.0759
2072.18	0.194786
2072.42	-0.743631
2072.66	-0.738567
2072.91	-0.735196
2073.15	1.15403
2073.4	1.15346
2073.64	0.208848
2073.89	0.206502
2074.13	0.202806
2074.38	0.198805
2074.62	1.13494
2074.87	0.188649
2075.11	2.07496
2075.35	0.190455
2075.6	2.07735
2075.84	1.13397
2076.09	-1.69614
2076.33	2.08022
2076.58	0.197952
2076.82	0.199465
2077.06	2.08994
2077.31	0.201547
2077.55	2.09223
2077.8	0.201518
2078.04	-0.745921
2078.29	1.14174
2078.53	0.195304
2078.77	2.08378
2079.02	-0.752485
2079.26	-0.752686
2079.51	0.192042
2079.75	2.08169
2080	1.13591
2080.24	1.1346
2080.48	-1.702
2080.73	-0.758698
2080.97	-0.759861
2081.22	0.184201
2081.46	2.07279
2081.7	-1.70798
2081.95	0.181246
2082.19	1.12532
2082.44	0.179094
2082.68	0.178111
2082.93	-0.767515
2083.17	-1.71098
2083.41	-0.762943
2083.66	2.07664
2083.9	-0.760856
2084.14	-1.70666
2084.39	0.186526
2084.63	0.186962
2084.88	-2.65318
2085.12	0.185068
2085.36	1.1307
2085.61	-0.762694
2085.85	2.07641
2086.1	1.12949
2086.34	3.0238
2086.58	0.184822
2086.83	2.08125
2087.07	-1.70696
2087.32	1.1344
2087.56	1.13431
2087.8	0.187056
2088.05	1.13496
2088.29	-0.759901
2088.54	-0.759679
2088.78	0.190158
2089.02	0.192891
2089.27	2.09319
2089.51	2.09694
2089.75	0.202518
2090	-0.744408
2090.24	2.10693
2090.48	0.209644
2090.73	0.211811
2090.97	-0.736977
2091.22	-0.735728
2091.46	0.214874
2091.7	-0.736859
2091.95	0.212298
2092.19	1.16101
2092.43	-0.743231
2092.68	2.10453
2092.92	2.10132
2093.17	2.09851
2093.41	0.196303
2093.65	-0.755207
2093.9	0.19327
2094.14	0.190618
2094.38	0.18707
2094.63	1.13281
2094.87	-0.768195
2095.11	0.179426
2095.36	-0.771336
2095.6	-0.774276
2095.84	1.12303
2096.09	0.172629
2096.33	-0.77821
2096.57	1.11825
2096.82	0.167974
2097.06	2.06509
2097.3	1.1155
2097.55	1.11528
2097.79	-1.73209
2098.03	-1.7303
2098.28	2.06944
2098.52	-1.72854
2098.76	2.07053
2099.01	0.170009
2099.25	1.11845
2099.5	-0.78198
2099.74	1.11601
2099.98	0.163299
2100.22	0.159595
2100.47	0.15699
2100.71	-0.793504
2100.95	-1.74447
2101.2	3.00096
2101.44	1.10258
2101.68	1.1038
2101.93	0.155381
2102.17	1.10602
2102.41	-1.74232
2102.66	0.159514
2102.9	-0.789063
2103.14	0.161795
2103.39	1.11282
2103.63	2.06334
2103.87	-0.788969
2104.12	0.161954
2104.36	0.161723
2104.6	2.06092
2104.85	0.156197
2105.09	1.10232
2105.33	0.147509
2105.57	1.0929
2105.82	-0.810253
2106.06	-0.812249
2106.3	0.136713
2106.55	2.98799
2106.79	1.09104
2107.03	0.140376
2107.27	1.08953
2107.52	0.138675
2107.76	-1.76219
2108	-0.813041
2108.25	-0.813989
2108.49	1.08429
2108.73	-0.818006
2108.98	2.0289
2109.22	-0.821774
2109.46	-0.822775
2109.7	0.127163
2109.95	3.92708
2110.19	2.02829
2110.43	1.08074
2110.68	-0.817766
2110.92	-0.817312
2111.16	-0.81862
2111.4	0.129807
2111.65	1.07897
2111.89	-2.72279
2112.13	0.127935
2112.38	0.126538
2112.62	2.02522
2112.86	-0.82741
2113.1	-0.829197
2113.35	2.01765
2113.59	2.01392
2113.83	0.112245
2114.07	1.0604
2114.32	1.05904
2114.56	0.109098
2114.8	-0.842284
2115.04	-0.844916
2115.29	-1.79692
2115.53	0.0975389
2115.77	0.0929728
2116.01	1.98616
2116.26	-0.862639
2116.5	0.0821857
2116.74	1.02668
2116.99	1.97108
2117.23	-1.82222
2117.47	1.01895
2117.71	-1.82412
2117.96	0.0722466
2118.2	1.96846
2118.44	0.0748577
2118.68	0.0773191
2118.92	0.0795279
2119.17	1.03021
2119.41	1.03217
2119.65	-0.864353
2119.9	-0.863403
2120.14	1.98511
2120.38	-0.862315
2120.62	1.03634
2120.86	0.0853672
2121.11	0.0832996
2121.35	-0.868547
2121.59	1.02548
2121.83	1.01944
2122.08	0.0640831
2122.32	-0.890016
2122.56	-0.894831
2122.8	0.994769
2123.04	0.0433474
2123.29	1.93209
2123.53	-0.910362
2123.77	0.0325022
2124.01	-0.916726
2124.26	-0.92
2124.5	-0.921728
2124.74	0.0224848
2124.98	-1.86968
2125.22	0.964485
2125.47	1.90814
2125.71	0.962302
2125.95	0.0165462
2126.19	0.960751
2126.44	0.959044
2126.68	-0.932742
2126.92	0.956252
2127.16	-1.88005
2127.4	0.00864506
2127.65	-0.937779
2127.89	0.00530052
2128.13	0.00318718
2128.37	-0.94382
2128.61	0.942559
2128.86	-0.00427055
2129.1	-0.95032
2129.34	0.936018
2129.58	0.93284
2129.82	-0.0141077
2130.06	-0.959585
2130.31	1.87041
2130.55	-0.960446
2130.79	-1.90416
2131.03	1.87025
2131.27	-0.960932
2131.52	0.926597
2131.76	2.81324
2132	-0.96263
2132.24	0.923924
2132.48	0.922781
2132.73	-0.966169
2132.97	-0.0252209
2133.21	3.74308
2133.45	0.908896
2133.69	-0.036521
2133.94	0.906039
2134.18	-1.92199
2134.42	-0.0367117
2134.66	-0.0359106
2134.9	-0.976786
2135.14	-0.977623
2135.39	-0.0386534
2135.63	0.900617
2135.87	0.902055
2136.11	-0.0368538
2136.35	0.909109
2136.59	-0.039855
2136.84	1.83902
2137.08	-0.0486088
2137.32	1.83329
2137.56	0.888938
2137.8	-0.0549231
2138.04	0.88546
2138.28	-1.94136
2138.53	-0.999946
2138.77	0.880801
2139.01	-0.0641842
2139.25	0.875445
2139.49	1.81629
2139.74	-1.94738
2139.98	-1.00432
2140.22	-0.995796
2140.46	-0.0570841
2140.7	-1.02724
2140.94	-0.0915251
2141.18	0.850866
2141.43	0.855021
2141.67	-0.0810251
2141.91	-0.0785999
2142.15	-1.02561
2142.39	-0.0856409
2142.63	1.79537
2142.87	-1.96661
2143.12	-1.02769
2143.36	-1.02903
2143.6	-0.0903311
2143.84	1.78817
2144.08	-1.97293
2144.32	-1.97475
2144.56	-1.03697
2144.8	-0.0992918
2145.05	-0.100957
2145.29	-1.042
2145.53	0.834616
2145.77	1.77157
2146.01	-0.10873
2146.25	2.70451
2146.49	-1.9918
2146.73	3.63194
2146.98	0.814133
2147.22	-1.06511
2147.46	3.61917
2147.7	-1.06944
2147.94	1.74181
2148.18	1.74268
2148.42	-2.00511
2148.66	-2.94189
2148.9	0.810578
2149.15	-1.06448
2149.39	0.813254
2149.63	0.810959
2149.87	-0.12888
2150.11	1.74364
2150.35	1.74085
2150.59	3.614
2150.83	-1.07375
2151.07	-0.138833
2151.31	2.66849
2151.56	1.72651
2151.8	-1.08839
2152.04	0.778356
2152.28	1.70708
2152.52	0.767207
2152.76	1.69759
2153	-1.10988
2153.24	-0.178085
2153.48	-0.179675
2153.72	-0.180434
2153.97	0.753202
2154.21	-0.18111
2154.45	-2.04881
2154.69	-0.178826
2154.93	1.69239
2155.17	-1.10926
2155.41	1.69532
2155.65	0.760407
2155.89	-1.10966
2156.13	-1.1108
2156.37	-2.04688
2156.61	-1.11442
2156.86	1.68558
2157.1	-0.185963
2157.34	0.744356
2157.58	1.67469
2157.82	-0.194946
2158.06	0.736607
2158.3	-1.13047
2158.54	-0.198585
2158.78	-1.13292
2159.02	-1.1335
2159.26	-0.200723
2159.5	1.66509
2159.74	-0.201015
2159.98	0.730722
2160.22	-0.20391
2160.47	1.65981
2160.71	-0.206788
2160.95	0.724181
2161.19	-0.209811
2161.43	1.6518
2161.67	1.64779
2161.91	-1.14986
2162.15	2.57717
2162.39	-1.14844
2162.63	0.715363
2162.87	1.64738
2163.11	-0.216236
2163.35	0.714159
2163.59	-1.15074
2163.83	0.710575
2164.07	0.707872
2164.31	0.70574
2164.55	0.70267
2164.79	-1.16284
2165.03	-1.16838
2165.27	2.54569
2165.51	0.683525
2165.76	-0.246563
2166	3.47293
2166.24	0.685558
2166.48	0.688287
2166.72	1.62232
2166.96	0.696733
2167.2	-2.09094
2167.44	-1.15712
2167.68	-2.08726
2167.92	0.705861
2168.16	1.6344
2168.4	1.63297
2168.64	-0.233772
2168.88	-0.242405
2169.12	-0.247391
2169.36	-0.249915
2169.6	0.677154
2169.84	-1.18295
2170.08	-0.254236
2170.32	1.60376
2170.56	0.674524
2170.8	2.53376
2171.04	0.677252
2171.28	0.67864
2171.52	-0.250027
2171.76	-1.17918
2172	-0.249791
2172.24	-0.249918
2172.48	0.67867
2172.72	-0.251438
2172.96	2.53595
2173.2	1.60604
2173.44	-0.253256
2173.68	-0.255255
2173.92	1.60179
2174.16	2.53081
2174.4	-0.255519
2174.64	1.60278
2174.88	1.60249
2175.12	-1.18371
2175.36	-0.255675
2175.6	-0.259011
2175.84	1.59531
2176.08	-0.261932
2176.32	-0.261235
2176.56	-0.260927
2176.8	0.667846
2177.04	1.59642
2177.28	0.667939
2177.52	-1.18927
2177.76	0.666963
2178	1.59452
2178.24	1.59427
2178.48	-0.263027
2178.72	2.52014
2178.96	0.662262
2179.2	-1.19428
2179.44	-2.12361
2179.68	1.5867
2179.92	-3.05306
2180.16	0.655356
2180.4	-1.20216
2180.64	1.57573
2180.88	2.49957
2181.12	1.57057
2181.35	0.641908
2181.59	-0.285178
2181.83	2.49502
2182.07	1.57004
2182.31	-0.282155
2182.55	-1.20787
2182.79	0.647551
2183.03	0.649933
2183.27	2.50718
2183.51	0.655094
2183.75	0.659077
2183.99	-1.19257
2184.23	1.59582
2184.47	0.671692
2184.71	0.674958
2184.95	-0.252746
2185.19	2.53231
2185.43	-0.255836
2185.67	0.670263
2185.91	-1.18885
2186.15	-0.263511
2186.38	1.58866
2186.62	-1.19811
2186.86	0.652919
2187.1	-0.275736
2187.34	-0.276218
2187.58	0.651288
2187.82	0.652462
2188.06	-0.27318
2188.3	1.58126
2188.54	0.655059
2188.78	5.29285
2189.02	-0.269587
2189.26	1.58666
2189.5	2.5156
2189.74	0.661913
2189.97	2.51986
2190.21	0.666944
2190.45	2.52554
2190.69	1.60083
2190.93	3.4644
2191.17	0.685181
2191.41	-0.239537
2191.65	1.62237
2191.89	3.48135
2192.13	2.54997
2192.37	0.689774
2192.61	0.687895
2192.85	1.61432
2193.08	-0.247231
2193.32	1.60565
2193.56	2.52931
2193.8	1.59766
2194.04	-0.260581
2194.28	1.59279
2194.52	-0.264222
2194.76	0.66339
2195	3.44669
2195.24	1.59322
2195.47	-2.11466
2195.71	1.60071
2195.95	1.60522
2196.19	1.61042
2196.43	1.61496
2196.67	1.61987
2196.91	1.62492
2197.15	-1.15824
2197.39	1.64001
2197.63	-0.214936
2197.86	0.721883
2198.1	1.65794
2198.34	2.59367
2198.58	0.725093
2198.82	1.64235
2199.06	-1.17351
2199.3	2.5184
2199.54	-1.18481
2199.78	2.55354
2200.01	0.706594
2200.25	4.42283
2200.49	0.70021
2200.73	2.56925
2200.97	-0.176364
2201.21	2.60474
2201.45	-2.9912
2201.69	2.60688
2201.92	3.52882
2202.16	0.720721
2202.4	-0.220397
2202.64	1.63206
2202.88	1.62994
2203.12	1.63022
2203.36	0.70379
2203.59	2.56506
2203.83	-0.229902
2204.07	-0.229019
2204.31	1.63271
2204.55	-0.22447
2204.79	3.49916
2205.03	3.50289
2205.27	4.43723
2205.5	-0.213103
2205.74	1.65138
2205.98	1.65369
2206.22	0.724181
2206.46	-1.13737
2206.7	1.65687
2206.93	0.725296
2207.17	0.725864
2207.41	0.727773
2207.65	0.729877
2207.89	0.732237
2208.13	1.6665
2208.37	2.60093
2208.6	2.60369
2208.84	2.60715
2209.08	-0.187123
2209.32	1.68046
2209.56	-1.11668
2209.8	0.748281
2210.03	1.67978
2210.27	-0.186772
2210.51	2.60897
2210.75	1.67383
2210.99	0.742264
2211.23	1.67758
2211.47	2.61641
2211.7	3.55627
2211.94	1.69136
2212.18	2.62629
2212.42	0.760291
2212.66	0.761051
2212.89	1.69519
2213.13	1.69539
2213.37	0.761653
2213.61	-0.172241
2213.85	-0.172707
2214.09	2.62756
2214.32	1.69405
2214.56	-0.172545
2214.8	-0.171849
2215.04	-0.171759
2215.28	1.69545
2215.51	1.69613
2215.75	3.56522
2215.99	-0.168113
2216.23	-2.034
2216.47	-1.09763
2216.71	1.70699
2216.94	0.774306
2217.18	0.775826
2217.42	1.71024
2217.66	-0.159511
2217.9	-1.09444
2218.13	0.773367
2218.37	0.770265
2218.61	-0.16739
2218.85	2.63117
2219.08	0.761014
2219.32	2.62624
2219.56	0.758827
2219.8	-1.10729
2220.04	0.761725
2220.27	1.6976
2220.51	1.70006
2220.75	0.7693
2220.99	5.44571
2221.23	1.71229
2221.46	1.71651
2221.7	-0.150425
2221.94	1.72343
2222.18	-2.01631
2222.42	2.66613
2222.65	-0.138175
2222.89	-0.13529
2223.13	-1.06932
2223.37	1.74381
2223.6	1.74611
2223.84	0.811903
2224.08	-0.12285
2224.32	-1.05841
2224.55	-3.87012
2224.79	2.69482
2225.03	2.69445
2225.27	0.817845
2225.5	-0.120866
2225.74	-1.0594
2225.98	-1.06013
2226.22	-2.93581
2226.46	3.62637
2226.69	1.75366
2226.93	2.69526
2227.17	2.69898
2227.41	0.825112
2227.64	2.70458
2227.88	2.70766
2228.12	-0.105784
2228.36	0.83617
2228.59	-0.0999765
2228.83	3.66057
2229.07	1.78427
2229.31	0.847076
2229.54	1.78976
2229.78	-0.0882807
2230.02	-0.0860186
2230.26	2.73813
2230.49	3.68167
2230.73	2.7436
2230.97	-1.01902
2231.21	-1.01786
2231.44	0.863873
2231.68	-0.07862
2231.92	1.80179
2232.16	-0.0828362
2232.39	-0.0875006
2232.63	1.78961
2232.87	2.72988
2233.11	-1.0313
2233.34	0.850012
2233.58	1.79107
2233.82	-1.97084
2234.05	-0.0892982
2234.29	-0.0866432
2234.53	1.79792
2234.77	0.861793
2235	1.80903
2235.24	1.81439
2235.48	1.81824
2235.72	-0.0636015
2235.95	0.882995
2236.19	-0.0557251
2236.43	1.83193
2236.66	-0.0563421
2236.9	1.82806
2237.14	-1.94821
2237.37	2.76248
2237.61	0.874966
2237.85	3.70903
2238.09	-0.0581732
2238.32	1.82928
2238.56	1.82986
2238.8	-0.0566597
2239.04	0.887498
2239.27	-0.99933
2239.51	-0.998437
2239.75	-0.0533495
2239.98	0.89066
2240.22	-0.0543442
2240.46	0.887524
2240.69	0.884961
2240.93	0.883416
2241.17	-1.00483
2241.4	1.82623
2241.64	-0.0597944
2241.88	-1.0007
2242.11	1.8372
2242.35	1.84218
2242.59	0.900128
2242.83	0.902342
2243.06	3.74134
2243.3	-0.984396
2243.54	1.85483
2243.77	-0.982197
2244.01	0.911336
2244.25	1.85922
2244.48	0.913817
2244.72	-0.0325499
2244.96	0.913201
2245.19	0.911924
2245.43	0.910506
2245.67	-0.98357
2245.91	0.907696
2246.14	-0.0398979
2246.38	1.85132
2246.61	0.906785
2246.85	1.85443
2247.09	-0.985717
2247.32	0.904914
2247.56	2.79399
2247.8	-0.0478792
2248.03	1.83995
2248.27	1.83654
2248.51	-1.00268
2248.74	0.88677
2248.98	2.77749
2249.22	0.887347
2249.45	2.78022
2249.69	-1.00101
2249.93	-0.0517664
2250.16	0.901091
2250.4	-0.0413141
2250.64	-0.985649
2250.87	-0.0359077
2251.11	0.913581
2251.35	1.8635
2251.58	2.81294
2251.82	0.916164
2252.06	2.8103
2252.29	2.81018
2252.53	4.70588
2252.77	1.86109
2253	-0.0355959
2253.24	-1.93114
2253.48	2.81313
2253.71	-0.0312757
2253.95	0.918896
2254.18	1.8695
2254.42	-0.97677
2254.66	3.77135
2254.89	0.923739
2255.13	1.87327
2255.37	1.87303
2255.6	-0.0263386
2255.84	-0.0260248
2256.08	2.82475
2256.31	1.87609
2256.55	3.77706
2256.78	1.87693
2257.02	0.927287
2257.26	0.9278
2257.49	2.82946
2257.73	-0.0221729
2257.96	-0.0212002
2258.2	-0.0181303
2258.44	2.83783
2258.67	1.88622
2258.91	0.934588
2259.15	0.934722
2259.38	-0.0168114
2259.62	-0.967875
2259.85	0.937651
2260.09	0.939681
2260.33	0.94231
2260.56	-1.91296
2260.8	1.90245
2261.03	-0.953405
2261.27	0.00397205
2261.51	3.82442
2261.74	0.0100574
2261.98	1.92166
2262.21	-1.89634
2262.45	0.970007
2262.69	0.0141773
2262.92	-0.941714
2263.16	1.9218
2263.39	-1.90257
2263.63	0.957966
2263.87	1.90787
2264.1	-0.959653
2264.34	1.89969
2264.57	-0.0118389
2264.81	1.89271
2265.05	-0.0192146
2265.28	-0.976209
2265.52	-0.0247583
2265.75	2.83491
2265.99	-1.93243
2266.22	0.930202
2266.46	1.88677
2266.7	-1.92791
2266.93	-0.0164986
2267.17	1.89678
2267.4	0.94491
2267.64	-0.964797
2267.87	2.85806
2268.11	-0.0074482
2268.35	-0.962508
2268.58	-0.962317
2268.82	3.81972
2269.05	-0.00452328
2269.29	0.952125
2269.53	-0.00562382
2269.76	-0.963132
2270	2.86324
2270.23	-3.83513
2270.47	-0.965364
2270.7	1.90476
2270.94	-0.966904
2271.18	0.946438
2271.41	0.945646
2271.65	0.944942
2271.88	2.85876
2272.12	-0.0135164
2272.35	0.943129
2272.59	1.90005
2272.82	-0.0168066
2273.06	0.941161
2273.3	2.85865
2273.53	-1.92918
2273.77	0.946609
2274	0.947927
2274.24	2.86693
2274.47	-0.0064373
2274.71	-0.962503
2274.94	0.000471115
2275.18	-0.955623
2275.41	0.00501728
2275.65	-1.91644
2275.88	0.00304508
2276.12	0.000965118
2276.36	-0.961823
2276.59	1.91512
2276.83	-0.972631
2277.06	1.90074
2277.3	1.89506
2277.53	-0.0281258
2277.77	-1.95004
2278	-0.0358715
2278.24	1.87847
2278.47	-0.0421228
2278.71	-0.0450859
2278.94	0.913247
2279.18	-1.00466
2279.41	-1.00461
2279.65	-0.0449495
2279.89	-0.0435886
2280.12	1.87654
2280.36	1.87914
2280.59	0.92323
2280.83	0.9281
2281.06	0.93233
2281.3	-0.0241776
2281.53	0.939366
2281.77	-0.98437
2282	-0.983326
2282.24	0.942245
2282.47	-2.90785
2282.71	-0.0220861
2282.94	-0.988776
2283.18	-0.995259
2283.41	0.926165
2283.65	-1.96022
2283.88	-0.0361567
2284.12	1.8932
2284.35	-1.95422
2284.59	0.934814
2284.82	-1.95497
2285.06	-0.026783
2285.29	-0.0295401
2285.53	-0.996567
2285.76	0.92598
2286	0.921667
2286.23	-0.0471067
2286.47	-1.01615
2286.7	-0.0601301
2286.94	1.85559
2287.17	-0.0712395
2287.41	0.886893
2287.64	1.84644
2287.88	2.80624
2288.11	1.84521
2288.35	0.885535
2288.58	-1.99795
2288.82	1.85207
2289.05	-0.0721941
2289.28	-0.0718002
2289.52	-1.03407
2289.75	0.893166
2289.99	1.85777
2290.22	0.895033
2290.46	0.895257
2290.69	-1.03263
2290.93	-0.0699425
2291.16	-2.0004
2291.4	-0.0763035
2291.63	-2.00729
2291.87	1.84208
2292.1	-1.05164
2292.34	0.870925
2292.57	-1.05892
2292.81	-1.06254
2293.04	6.6359
2293.28	-0.108163
2293.51	0.846629
2293.74	0.843885
2293.98	2.76742
2294.21	-1.08139
2294.45	-0.118596
2294.68	3.73324
2294.92	0.847154
2295.15	-0.113258
2295.39	0.851266
2295.62	-0.112338
2295.86	-0.111664
2296.09	-0.110226
2296.32	-1.07366
2296.56	1.82019
2296.79	-2.0388
2297.03	-0.111639
2297.26	-1.07814
2297.5	-0.115768
2297.73	1.81332
2297.97	1.81402
2298.2	-0.116068
2298.43	0.848677
2298.67	1.81299
2298.9	-0.119136
2299.14	2.7743
2299.37	0.840594
2299.61	-1.09252
2299.84	0.836143
2300.07	-2.06146
2300.31	3.72644
2300.54	1.79415
2300.78	-0.137663
2301.01	-0.138285
2301.25	0.827436
2301.48	0.827801
2301.71	4.69007
2301.95	-0.13814
2302.18	1.79442
2302.42	1.7943
2302.65	-0.139123
2302.89	0.826324
2303.12	2.759
2303.35	-0.14034
2303.59	-0.141619
2303.82	0.823372
2304.05	2.75447
2304.29	-2.08059
2304.52	0.815893
2304.76	-1.1204
2304.99	-0.156886
2305.23	-0.159919
2305.46	-1.12897
2305.69	-1.13081
2305.93	-0.165915
2306.16	1.76691
2306.4	-2.09828
2306.63	-2.09728
2306.86	1.77272
2307.1	-0.160327
2307.33	0.806558
2307.57	1.77262
2307.8	-0.164321
2308.03	-0.16745
2308.27	-1.1393
2308.5	-1.14796
2308.74	2.706
2308.97	-2.12917
2309.2	0.762215
2309.44	0.758463
2309.67	0.754286
2309.91	-0.214146
2310.14	0.748879
2310.37	-2.14612
2310.61	-0.213753
2310.84	-1.17595
2311.07	0.757989
2311.31	-0.205719
2311.54	0.763294
2311.78	0.767028
2312.01	0.770249
2312.24	-0.196335
2312.48	0.765836
2312.71	0.760764
2312.94	2.68995
2313.18	-1.18198
2313.41	-1.19014
2313.65	-0.229383
2313.88	-1.19832
2314.11	1.69666
2314.35	-3.13212
2314.58	-0.235917
2314.81	-0.23382
2315.05	0.733268
2315.28	0.727079
2315.51	-1.20795
2315.75	0.720131
2315.98	-0.248821
2316.22	1.67809
2316.45	-0.255615
2316.68	-2.18832
2316.92	-0.260593
2317.15	1.66805
2317.38	0.702277
2317.62	2.63087
2317.85	-0.263935
2318.08	-2.19356
2318.32	0.703251
2318.55	-2.19193
2318.78	-0.259076
2319.02	0.70962
2319.25	-0.25342
2319.48	-1.21768
2319.72	-0.250766
2319.95	-1.2191
2320.19	1.68069
2320.42	-0.25281
2320.65	0.713894
2320.89	-0.25302
2321.12	-1.22053
2321.35	0.711959
2321.58	0.710427
2321.82	-1.22726
2322.05	2.63367
2322.28	0.695032
2322.52	-1.2407
2322.75	-0.278232
2322.98	-1.24702
2323.22	-0.285004
2323.45	-1.25358
2323.68	0.672771
2323.92	1.6337
2324.15	1.62979
2324.38	2.59005
2324.62	2.58711
2324.85	4.51169
2325.08	2.58155
2325.32	3.54572
2325.55	4.50927
2325.78	2.58154
2326.02	4.50531
2326.25	4.50148
2326.48	8.34938
2326.71	7.38391
2326.95	10.2721
2327.18	12.2016
2327.41	24.7212
2327.65	26.6442
2327.88	40.1229
2328.11	39.1581
2328.35	22.7895
2328.58	17.9788
2328.81	10.277
2329.05	8.3556
2329.28	7.38621
2329.51	6.41904
2329.75	2.56413
2329.98	4.48791
2330.21	1.59738
2330.44	-0.32963
2330.68	1.59431
2330.91	-0.331745
2331.14	0.62911
2331.38	0.62712
2331.61	-0.338076
2331.84	-2.26317
2332.07	3.50635
2332.31	2.54465
2332.54	-2.26376
2332.77	0.622267
2333	-1.29955
2333.24	0.624148
2333.47	-0.338212
2333.7	-1.29982
2333.94	1.58499
2334.17	-0.337662
2334.4	1.58545
2334.63	-0.33701
2334.87	-1.29844
2335.1	-0.336999
2335.33	0.624711
2335.56	0.625155
2335.8	1.58706
2336.03	-1.29468
2336.26	2.55173
2336.5	-3.21427
2336.73	-0.329688
2336.96	1.59288
2337.19	0.631499
2337.43	-0.330207
2337.66	0.629792
2337.89	1.58873
2338.12	-1.29438
2338.36	-0.336693
2338.59	-0.33991
2338.82	0.617411
2339.05	-1.30139
2339.29	2.53415
2339.52	0.616177
2339.75	2.53398
2339.98	-0.340704
2340.22	0.619788
2340.45	-0.33646
2340.68	1.58231
2340.91	0.625486
2341.15	-0.330475
2341.38	-0.327157
2341.61	0.634455
2341.84	0.6366
2342.08	0.638301
2342.31	-0.319001
2342.54	-0.318401
2342.77	1.59711
2343.01	0.639333
2343.24	1.59732
2343.47	0.641595
2343.7	-3.18657
2343.93	-0.3113
2344.17	0.648196
2344.4	1.60775
2344.63	-0.304011
2344.86	0.657064
2345.1	-1.25358
2345.33	0.66661
2345.56	-1.24409
2345.79	2.59023
2346.03	0.677253
2346.26	-0.278767
2346.49	-0.280502
2346.72	0.674471
2346.95	1.62754
2347.19	-0.288434
2347.42	0.66106
2347.65	0.646991
2347.88	0.621572
2348.12	-0.304299
2348.35	0.701363
2348.58	0.719786
2348.81	1.65056
2349.04	0.684489
2349.28	-1.2182
2349.51	1.6519
2349.74	-1.21451
2349.97	-0.267402
2350.2	1.63338
2350.44	-2.16824
2350.67	-0.258807
2350.9	-1.20844
2351.13	-2.15532
2351.36	-0.24542
2351.6	0.716173
2351.83	-0.227895
2352.06	-0.222554
2352.29	-0.217607
2352.52	0.739897
2352.76	-0.208065
2352.99	2.6541
2353.22	-2.10439
2353.45	-0.197586
2353.68	2.65745
2353.92	1.70674
2354.15	-0.191899
2354.38	1.71432
2354.61	-0.182909
2354.84	0.772621
2355.07	-1.12338
2355.31	1.73353
2355.54	-1.11152
2355.77	-0.156781
2356	3.6493
2356.23	-0.144252
2356.46	-0.137558
2356.7	0.818271
2356.93	-2.97496
2357.16	0.828364
2357.39	1.78225
2357.62	0.837841
2357.86	-1.05477
2358.09	-1.99795
2358.32	-1.04399
2358.55	-1.03856
2358.78	-1.03302
2359.01	-1.02753
2359.25	0.872556
2359.48	-1.96347
2359.71	-0.0632658
2359.94	0.889935
2360.17	0.896622
2360.4	-0.0425367
2360.63	-0.98094
2360.87	1.86579
2361.1	0.927586
2361.33	0.935407
2361.56	-1.89415
2361.79	-1.88573
2362.02	0.0142822
2362.26	-0.923231
2362.49	-0.915353
2362.72	0.0342817
2362.95	-0.907086
2363.18	0.0417929
2363.41	0.994561
2363.64	0.0613937
2363.88	1.96065
2364.11	2.92244
2364.34	0.109355
2364.57	0.126638
2364.8	0.137052
