#Acq. time (s)=	30
#Accumulations=	2
#Range (cm-¹)=	1200...2365
#Windows=	3
#Auto scanning=	Off
#Autofocus=	Off
#Macrospot=	Off
#AutoExposure=	Off
#Spike filter=	Multiple accum.
#Delay time (s)=	2
#Binning=	1
#Readout mode=	Signal
#DeNoise=	Off
#ICS correction=	On
#Dark correction=	Off
#Inst. Process=	Off
#Detector Gain=	Best Dynamic
#Detector ADC=	50 kHz HS
#Detector temperature (°C)=	-60.09
#Instrument=	LabRAM HR Evol
#Detector=	SIN-EM FIVIS
#Objective=	x100_VIS
#Grating=	1800 (450-850nm)
#ND Filter=	100%
#Laser=	532nm_Edge
#Hole=	49.98
#Temperature=	0
#Range=	Visible
#StageXY=	75x50mm Scan+
#StageZ=	Z motor
#X (µm)=	0
#Y (µm)=	0
#Z (µm)=	-250.4
#Full time(mm:ss)=	3:18
#Project=	21_11_04
#Sample=	BU19w
#Site=	
#Title=	BU19w-E-FF11b-FI03-V_1800 (450-850nm)_532nm_Edge_100%_x100_VIS_H50um_30sX2
#Remark=	
#Date=	04.11.2021 18:43
#Acquired=	04.11.2021 18:43:09
#Base:Fit=	16.12.2021 17:39:50
#Base:Fit=	16.12.2021 17:45:42
#Base:Sub=	16.12.2021 17:45:44
1202.73	3.29329
1203.01	1.04844
1203.29	0.949852
1203.57	-0.210333
1203.85	4.00112
1204.12	0.702074
1204.4	-1.53028
1204.68	1.60943
1204.96	0.447273
1205.24	0.36109
1205.51	0.274174
1205.79	3.40638
1206.07	1.17484
1206.35	-1.0542
1206.63	2.0756
1206.9	-0.148232
1207.18	-1.29824
1207.46	-0.306044
1207.74	-1.4536
1208.01	1.67834
1208.29	1.59911
1208.57	2.59001
1208.85	1.44444
1209.13	2.44039
1209.4	3.43677
1209.68	3.36243
1209.96	0.0791702
1210.23	2.13751
1210.51	-1.14269
1210.79	0.916847
1211.07	-3.42703
1211.35	-1.36736
1211.62	1.75663
1211.9	-0.449057
1212.18	-0.521099
1212.46	0.472284
1212.73	0.401585
1213.01	-1.79662
1213.29	-1.86481
1213.57	1.26293
1213.84	-1.99425
1214.12	-3.12216
1214.4	3.2026
1214.68	2.07453
1214.95	-0.117983
1215.23	3.01254
1215.51	-1.31054
1215.78	0.75054
1216.06	-1.44567
1216.34	0.61253
1216.62	-1.57977
1216.9	-0.582489
1217.17	0.41489
1217.45	-1.77252
1217.73	0.288485
1218	-2.95806
1218.28	-0.895557
1218.56	-3.07612
1218.84	1.11004
1219.11	-0.00881577
1219.39	-4.31155
1219.67	0.935135
1219.94	-0.179831
1220.22	-0.235209
1220.5	-1.35078
1220.77	-5.64943
1221.05	0.656422
1221.33	-1.52146
1221.61	2.6575
1221.88	-2.70034
1222.16	-0.643791
1222.44	0.352476
1222.72	1.34974
1222.99	2.34521
1223.27	2.28776
1223.55	-3.05286
1223.82	-0.995466
1224.1	0.00772285
1224.38	-2.15607
1224.65	0.961308
1224.93	-0.141226
1225.21	-1.24081
1225.49	-1.28551
1225.76	-0.275431
1226.04	6.01177
1226.32	1.73938
1226.59	1.68953
1226.87	-0.474316
1227.15	1.57287
1227.42	2.56366
1227.7	-1.70622
1227.98	2.4422
1228.25	1.3268
1228.53	0.224464
1228.81	-0.838497
1229.08	0.22389
1229.36	6.51875
1229.64	-0.928514
1229.91	2.17781
1230.19	3.18909
1230.47	-0.0167675
1230.74	2.01044
1231.02	-2.24721
1231.3	1.91783
1231.57	-3.3758
1231.85	2.88778
1232.13	1.79737
1232.4	1.75836
1232.68	1.7184
1232.96	-0.421309
1233.23	2.69366
1233.51	-1.54323
1233.79	-0.526966
1234.06	4.69375
1234.34	0.459141
1234.62	4.63048
1234.89	-1.7093
1235.17	1.41245
1235.45	2.43214
1235.72	-3.90951
1236	-3.9451
1236.27	-3.98138
1236.55	1.23726
1236.83	-0.904547
1237.1	0.105259
1237.38	1.11454
1237.66	-4.17386
1237.93	-1.06516
1238.21	0.993702
1238.49	-2.18792
1238.76	-0.124853
1239.04	-1.2061
1239.31	-1.23798
1239.59	0.827728
1239.87	-3.39489
1240.14	-0.279093
1240.42	-3.45161
1240.7	-0.333967
1240.97	-0.362326
1241.25	0.653248
1241.52	0.621944
1241.8	-2.55025
1242.08	0.568544
1242.35	1.59112
1242.63	-3.67111
1242.91	-1.60011
1243.18	0.469528
1243.46	-0.602877
1243.74	0.421236
1244.01	-1.70192
1244.29	0.368088
1244.56	-0.70821
1244.84	1.35682
1245.11	-1.81665
1245.39	-2.89605
1245.67	-0.830801
1245.94	-0.855425
1246.22	0.167221
1246.49	1.19189
1246.77	3.26127
1247.05	1.1442
1247.32	0.0748291
1247.6	2.14003
1247.87	1.06381
1248.15	3.13245
1248.43	6.24963
1248.7	4.13978
1248.98	0.981846
1249.25	2.00613
1249.53	-0.105406
1249.8	-0.127129
1250.08	2.98384
1250.36	2.95821
1250.63	0.843719
1250.91	-1.26898
1251.18	-2.3359
1251.46	-2.35783
1251.74	3.88612
1252.01	3.86334
1252.29	-2.42283
1252.56	3.81781
1252.84	4.84066
1253.11	0.649019
1253.39	-0.408394
1253.66	5.8428
1253.94	1.65735
1254.22	0.601446
1254.49	3.7196
1254.77	1.61745
1255.04	0.559315
1255.32	2.63237
1255.59	3.66246
1255.87	0.517214
1256.14	3.63992
1256.42	1.53979
1256.7	2.57061
1256.97	3.5986
1257.25	7.75963
1257.52	9.83275
1257.8	8.77323
1258.07	9.80207
1258.35	2.47556
1258.62	6.63541
1258.9	5.58272
1259.18	4.52923
1259.45	10.7981
1259.73	4.51829
1260	9.72119
1260.28	9.69816
1260.55	8.63436
1260.83	12.7902
1261.1	12.7757
1261.38	15.9226
1261.65	23.2711
1261.93	25.4364
1262.2	30.5781
1262.48	38.8493
1262.75	40.8464
1263.03	50.2869
1263.31	45.1194
1263.58	44.1168
1263.85	35.8277
1264.13	29.5023
1264.41	20.0667
1264.68	15.8766
1264.96	13.7814
1265.23	13.7634
1265.51	11.6653
1265.78	6.43589
1266.06	4.34298
1266.33	8.52249
1266.61	6.43287
1266.88	3.29818
1267.16	6.43863
1267.43	7.48911
1267.71	7.49617
1267.98	6.45992
1268.26	2.27229
1268.53	5.41503
1268.81	4.36726
1269.08	5.41229
1269.36	9.59254
1269.63	9.57907
1269.91	8.51865
1270.18	7.46098
1270.46	7.45033
1270.73	4.3039
1271.01	4.29803
1271.28	5.34027
1271.56	6.38943
1271.83	7.44209
1272.1	9.54509
1272.38	2.22152
1272.65	7.46526
1272.93	2.23179
1273.2	7.47895
1273.48	5.38877
1273.75	3.29611
1274.03	7.49325
1274.3	8.5408
1274.58	4.34353
1274.85	9.58951
1275.13	7.49555
1275.4	6.45131
1275.68	6.45775
1275.95	6.46412
1276.22	13.8197
1276.5	10.6757
1276.78	7.53234
1277.05	15.9455
1277.32	14.9052
1277.6	8.60812
1277.87	15.9742
1278.15	13.8828
1278.42	11.7884
1278.7	18.1081
1278.97	16.0065
1279.24	21.2648
1279.52	20.2094
1279.79	33.8798
1280.07	30.7291
1280.34	44.4089
1280.62	57.0488
1280.89	79.1769
1281.17	98.1488
1281.44	141.309
1281.71	205.531
1281.99	283.478
1282.26	408.742
1282.54	520.175
1282.81	682.689
1283.09	859.864
1283.36	887.197
1283.63	787.124
1283.91	560.562
1284.18	346.969
1284.46	222.691
1284.73	145.693
1285.01	91.9187
1285.28	64.5354
1285.55	50.8712
1285.83	47.7284
1286.1	32.9732
1286.38	27.7126
1286.65	26.6635
1286.93	23.5045
1287.2	19.2906
1287.47	20.3414
1287.75	16.1359
1288.02	10.8808
1288.3	10.8878
1288.57	7.74072
1288.84	8.8055
1289.12	13.0294
1289.39	9.88387
1289.67	8.84441
1289.94	13.0683
1290.21	4.64335
1290.49	8.86065
1290.76	4.65376
1291.04	3.60728
1291.31	9.93294
1291.58	8.88555
1291.86	6.78845
1292.13	7.85016
1292.4	6.80024
1292.68	2.59519
1292.95	6.82094
1293.23	3.68188
1293.5	5.80947
1293.77	4.77345
1294.05	4.78009
1294.32	2.67938
1294.59	3.74172
1294.87	4.81579
1295.14	3.78364
1295.42	1.69861
1295.69	3.83749
1295.96	4.90912
1296.24	2.80496
1296.51	4.92694
1296.79	2.81748
1297.06	3.87794
1297.33	2.82448
1297.61	7.05142
1297.88	3.88991
1298.15	3.90174
1298.43	0.738861
1298.7	4.96778
1298.97	3.91759
1299.25	1.81379
1299.52	3.93769
1299.79	2.8964
1300.07	5.0198
1300.34	0.806156
1300.61	1.87106
1300.89	5.04925
1301.16	2.95134
1301.44	4.02279
1301.71	4.03676
1301.98	1.93632
1302.26	-0.165384
1302.53	3.01323
1302.8	1.96548
1303.08	-0.13961
1303.35	3.03683
1303.62	1.99211
1303.9	2.00366
1304.17	0.958952
1304.44	2.02422
1304.72	-1.13556
1304.99	-1.12886
1305.26	3.09848
1305.54	-1.11646
1305.81	-0.0551243
1306.08	-0.0465794
1306.36	-1.09023
1306.63	-0.0221806
1306.9	1.04599
1307.18	0.00339508
1307.45	2.12455
1307.72	0.0286446
1307.99	-1.01465
1308.27	-1.00207
1308.54	2.17804
1308.81	3.24945
1309.09	1.15589
1309.36	-4.10486
1309.63	0.129549
1309.91	-1.96977
1310.18	4.37407
1310.45	0.166643
1310.73	2.2917
1311	0.195164
1311.27	0.209433
1311.54	1.28208
1311.82	3.41129
1312.09	-1.85218
1312.36	-2.89404
1312.64	2.39487
1312.91	-1.81686
1313.18	1.36241
1313.45	-1.79302
1313.73	3.49748
1314	1.401
1314.27	1.41686
1314.55	2.48948
1314.82	0.394789
1315.09	-1.70034
1315.36	3.59746
1315.64	-1.66853
1315.91	1.51253
1316.18	-0.586956
1316.46	-0.573544
1316.73	-0.559677
1317	-0.543568
1317.28	1.58625
1317.55	-1.56654
1317.82	-0.49464
1318.09	-0.479416
1318.37	0.591787
1318.64	0.605909
1318.91	-2.54968
1319.18	-1.47947
1319.46	0.648577
1319.73	-0.392307
1320	-2.49096
1320.27	2.80305
1320.55	-0.355591
1320.82	2.82069
1321.09	-2.45028
1321.36	-3.49545
1321.64	-1.37564
1321.91	0.74477
1322.18	-2.40755
1322.45	-2.39542
1322.73	2.88688
1323	-0.260365
1323.27	1.86532
1323.54	0.826946
1323.82	-0.212791
1324.09	-0.197081
1324.36	2.98063
1324.63	-1.21982
1324.91	-3.31616
1325.18	-0.146671
1325.45	0.910538
1325.72	-2.25037
1325.99	1.96486
1326.27	4.07952
1326.54	0.942537
1326.81	-2.18402
1327.08	3.10719
1327.36	-1.0825
1327.63	-0.00410271
1327.9	1.07572
1328.17	-3.11917
1328.45	-2.04293
1328.72	1.13347
1328.99	-2.01261
1329.26	-1.99695
1329.53	-1.98235
1329.81	-0.913811
1330.08	-4.06545
1330.35	-0.890133
1330.62	-1.93442
1330.9	-0.871668
1331.17	-2.97267
1331.44	0.194239
1331.71	-1.90134
1331.98	-0.838953
1332.26	-1.8821
1332.53	0.229467
1332.8	1.28919
1333.07	-0.804193
1333.34	0.256357
1333.62	2.36667
1333.89	0.276058
1334.16	3.43585
1334.43	0.29751
1334.7	0.309494
1334.98	-2.8262
1335.25	1.38258
1335.52	-0.702751
1335.79	-0.68984
1336.06	2.46914
1336.34	-1.71105
1336.61	2.49646
1336.88	1.4626
1337.15	1.47699
1337.42	1.48957
1337.69	4.64168
1337.96	1.5116
1338.24	2.57208
1338.51	0.490383
1338.78	1.55298
1339.05	-0.524374
1339.32	0.540901
1339.6	1.60575
1339.87	-1.51876
1340.14	-0.453619
1340.41	3.75238
1340.68	0.626335
1340.95	0.641792
1341.23	2.75055
1341.5	0.669939
1341.77	4.86923
1342.04	-0.353134
1342.31	1.75005
1342.58	-1.37597
1342.86	2.82262
1343.13	0.74646
1343.4	-1.32871
1343.67	1.82585
1343.94	0.79722
1344.21	1.85883
1344.48	-1.26463
1344.76	1.88443
1345.03	-2.28607
1345.3	1.90443
1345.57	0.869837
1345.84	1.92084
1346.11	1.92762
1346.39	4.02421
1346.66	1.94691
1346.93	4.04225
1347.2	0.925669
1347.47	1.98158
1347.74	-0.0885086
1348.01	2.01116
1348.28	-6.31137
1348.55	-0.0458069
1348.83	1.00863
1349.1	-2.10329
1349.37	3.11665
1349.64	2.088
1349.91	2.10071
1350.18	5.23457
1350.45	3.1638
1350.73	2.1355
1351	2.14717
1351.27	3.20043
1351.54	0.096859
1351.81	5.31476
1352.08	-0.903913
1352.35	3.28053
1352.62	2.26163
1352.89	-0.830673
1353.17	2.3343
1353.44	4.4296
1353.71	1.2898
1353.98	5.43412
1354.25	-1.82933
1354.52	1.3077
1354.79	6.51492
1355.06	5.4821
1355.33	1.3492
1355.6	6.57208
1355.88	2.42497
1356.15	2.43942
1356.42	2.45424
1356.69	2.46912
1356.96	0.406424
1357.23	1.4584
1357.5	6.66204
1357.77	1.48432
1358.04	5.64808
1358.31	2.54764
1358.58	3.59656
1358.86	5.68386
1359.13	3.6232
1359.4	3.6358
1359.67	5.71763
1359.94	3.65456
1360.21	4.70119
1360.48	5.75097
1360.75	5.76685
1361.02	0.604254
1361.29	4.76292
1361.56	4.77757
1361.83	5.82654
1362.1	7.91179
1362.37	1.71418
1362.65	6.9086
1362.92	7.96453
1363.19	9.02209
1363.46	6.97053
1363.73	14.2407
1364	10.1118
1364.27	11.1617
1364.54	13.2449
1364.81	7.04217
1365.08	4.98202
1365.35	8.09735
1365.62	9.1422
1365.89	10.1863
1366.16	10.1948
1366.43	10.2013
1366.7	9.17637
1366.97	7.12295
1367.24	9.20714
1367.52	8.19401
1367.79	11.3135
1368.06	15.4671
1368.33	30.9932
1368.6	56.8608
1368.87	50.6795
1369.14	27.9471
1369.41	11.4165
1369.68	8.32835
1369.95	10.4062
1370.22	10.4166
1370.49	5.26258
1370.76	9.40436
1371.03	9.41135
1371.3	8.38434
1371.57	10.453
1371.84	8.39521
1372.11	12.5273
1372.38	9.44406
1372.65	8.42522
1372.92	11.5297
1373.19	12.5729
1373.46	5.37318
1373.73	13.6302
1374	11.5837
1374.27	13.658
1374.54	15.7306
1374.81	11.6257
1375.08	11.645
1375.35	11.6621
1375.62	10.6494
1375.89	13.7514
1376.16	14.7891
1376.43	16.8539
1376.7	11.7087
1376.97	13.7806
1377.24	16.8913
1377.51	13.8314
1377.78	14.893
1378.05	18.0212
1378.32	20.111
1378.59	20.1286
1378.86	20.1404
1379.13	22.2125
1379.4	25.313
1379.67	21.1941
1379.94	19.1196
1380.21	23.2299
1380.48	18.0812
1380.75	24.2719
1381.02	30.4533
1381.29	23.2526
1381.56	27.3566
1381.83	30.4319
1382.1	30.4292
1382.37	36.5818
1382.64	34.5292
1382.91	49.9116
1383.18	44.7867
1383.45	50.9407
1383.72	57.1075
1383.99	67.3796
1384.26	85.8672
1384.53	110.519
1384.8	135.216
1385.07	170.17
1385.34	251.347
1385.61	384.866
1385.87	553.404
1386.14	954.076
1386.41	1509.85
1386.68	2095.13
1386.95	1925.08
1387.22	1183.76
1387.49	612.888
1387.76	344.464
1388.03	215.021
1388.3	145.594
1388.57	100.621
1388.84	78.0388
1389.11	67.8148
1389.38	41.1187
1389.65	48.2813
1389.92	35.9278
1390.19	34.9397
1390.46	33.8975
1390.73	29.8046
1390.99	25.7196
1391.26	22.6516
1391.53	21.6311
1391.8	20.6116
1392.07	25.7387
1392.34	25.7469
1392.61	20.6378
1392.88	19.6249
1393.15	15.542
1393.42	17.6006
1393.69	20.6824
1393.96	16.6016
1394.23	14.5679
1394.5	14.5831
1394.76	16.6511
1395.03	14.6235
1395.3	11.5701
1395.57	11.5845
1395.84	9.54982
1396.11	16.7255
1396.38	8.5486
1396.65	19.814
1396.92	11.6366
1397.19	11.6468
1397.46	10.637
1397.73	9.62966
1397.99	10.6697
1398.26	16.8252
1398.53	11.726
1398.8	11.7439
1399.07	14.8326
1399.34	10.7563
1399.61	9.74796
1399.88	10.7879
1400.14	9.78432
1400.41	12.8756
1400.68	13.9146
1400.95	13.9303
1401.22	13.9459
1401.49	10.8934
1401.76	11.9463
1402.03	10.9534
1402.3	10.9828
1402.57	17.1657
1402.83	14.1079
1403.1	12.0708
1403.37	11.0545
1403.64	6.95063
1403.91	12.0911
1404.18	16.2088
1404.45	14.1671
1404.72	14.1757
1404.99	18.2854
1405.25	15.2162
1405.52	18.2996
1405.79	25.4838
1406.06	26.518
1406.33	27.5567
1406.6	38.8483
1406.87	41.942
1407.13	54.2619
1407.4	64.5324
1407.67	69.6774
1407.94	87.1273
1408.21	100.479
1408.48	91.2729
1408.75	70.7832
1409.01	61.5724
1409.28	44.1526
1409.55	30.8329
1409.82	24.6853
1410.09	23.6624
1410.36	18.5366
1410.62	13.4154
1410.89	14.447
1411.16	12.4059
1411.43	16.5138
1411.7	5.25958
1411.97	12.4511
1412.23	8.37564
1412.5	10.4717
1412.77	10.5136
1413.04	6.41208
1413.31	8.43592
1413.58	11.5191
1413.84	7.44532
1414.11	10.556
1414.38	12.6215
1414.65	6.47517
1414.92	9.56793
1415.19	8.55411
1415.45	10.6221
1415.72	2.42237
1415.99	9.62564
1416.26	7.58668
1416.53	6.57504
1416.8	7.61765
1417.06	8.66072
1417.33	8.67517
1417.6	7.66066
1417.87	3.56296
1418.14	4.60483
1418.4	4.61655
1418.67	5.65818
1418.94	5.66875
1419.21	6.70444
1419.48	1.57466
1419.74	7.74585
1420.01	5.69907
1420.28	7.75917
1420.55	3.6598
1420.82	7.77385
1421.08	6.75947
1421.35	4.72201
1421.62	6.7975
1421.89	7.84232
1422.16	7.86691
1422.42	5.83847
1422.69	3.818
1422.96	8.98044
1423.23	3.73595
1423.5	4.80043
1423.76	7.86556
1424.03	10.9289
1424.3	6.86467
1424.57	7.89785
1424.83	8.96977
1425.1	4.85372
1425.37	7.95937
1425.64	2.83961
1425.91	7.97773
1426.17	2.85476
1426.44	5.93645
1426.71	1.84098
1426.98	5.94425
1427.24	4.92078
1427.51	3.90348
1427.78	5.96016
1428.05	3.92329
1428.32	2.91155
1428.58	0.876171
1428.85	1.91328
1429.12	3.97555
1429.38	5.01508
1429.65	2.98242
1429.92	4.02365
1430.19	4.03956
1430.46	4.05912
1430.72	3.05321
1430.99	6.14798
1431.26	4.10773
1431.53	4.11625
1431.79	2.06961
1432.06	2.07634
1432.33	4.13453
1432.6	1.06102
1432.86	4.13888
1433.13	1.06684
1433.4	2.09558
1433.67	4.1511
1433.93	6.21373
1434.2	3.16108
1434.47	4.19735
1434.73	0.109316
1435	2.16891
1435.27	5.25266
1435.54	1.16312
1435.8	3.22129
1436.07	3.22993
1436.34	2.21371
1436.6	3.24642
1436.87	4.27976
1437.14	1.21591
1437.41	5.32079
1437.67	3.2829
1437.94	1.24686
1438.21	3.30794
1438.48	1.27026
1438.74	2.30555
1439.01	5.39161
1439.28	8.4807
1439.54	5.42201
1439.81	3.38563
1440.08	2.37194
1440.35	3.40785
1440.61	2.39298
1440.88	1.37688
1441.15	1.38412
1441.41	5.49241
1441.68	1.40299
1441.95	2.43978
1442.21	4.5033
1442.48	1.43614
1442.75	2.46825
1443.02	4.52526
1443.28	2.48184
1443.55	0.439884
1443.82	0.449585
1444.08	3.53868
1444.35	-0.549049
1444.62	-1.56028
1444.88	4.60596
1445.15	2.56144
1445.42	2.56895
1445.69	6.67955
1445.95	3.60988
1446.22	1.56625
1446.49	1.57401
1446.75	-0.469475
1447.02	1.58825
1447.28	2.62036
1447.55	-1.47229
1447.82	3.66483
1448.09	4.70407
1448.35	1.6387
1448.62	1.648
1448.89	0.630182
1449.15	2.68806
1449.42	-0.382175
1449.69	1.6741
1449.95	1.68085
1450.22	-2.41192
1450.49	-2.40438
1450.75	1.70251
1451.02	-1.36486
1451.29	0.691502
1451.55	0.698586
1451.82	-2.36749
1452.09	-2.35894
1452.35	0.723642
1452.62	0.733894
1452.88	0.744398
1453.15	0.753681
1453.42	1.78602
1453.68	2.81781
1453.95	-0.248228
1454.22	-0.239794
1454.48	3.86722
1454.75	0.800228
1455.02	2.8569
1455.28	3.8931
1455.55	0.829336
1455.81	-0.186874
1456.08	0.845459
1456.35	-0.173773
1456.61	-3.24262
1456.88	-0.162321
1457.15	-2.20428
1457.41	2.9247
1457.68	0.883968
1457.95	-1.15669
1458.21	-0.123472
1458.48	1.93442
1458.74	-1.13075
1459.01	1.95161
1459.28	2.98365
1459.54	2.99033
1459.81	0.947845
1460.08	0.954256
1460.34	-1.08827
1460.61	0.965723
1460.87	-0.0528984
1461.14	-1.07134
1461.41	-0.0425301
1461.67	-0.0378342
1461.94	-2.08032
1462.2	-1.05268
1462.47	0.9972
1462.74	1.0005
1463	1.00368
1463.27	-1.03632
1463.54	2.04101
1463.8	1.03532
1464.07	0.0257759
1464.33	0.0391178
1464.6	1.07885
1464.86	-2.02188
1465.13	0.0120163
1465.4	0.0110359
1465.66	-0.995596
1465.93	0.0346394
1466.19	2.0759
1466.46	-4.04505
1466.73	1.06602
1466.99	0.0519657
1467.26	1.07791
1467.52	2.10393
1467.79	-1.96966
1468.05	0.0771828
1468.32	1.10357
1468.59	1.10897
1468.85	-0.925741
1469.12	0.0985546
1469.38	1.12079
1469.65	2.14302
1469.92	0.108885
1470.18	0.113701
1470.45	0.118759
1470.71	-2.93195
1470.98	2.16478
1471.24	0.131538
1471.51	0.136641
1471.77	-2.91225
1472.04	-1.88779
1472.31	3.2095
1472.57	-0.857512
1472.84	-0.85278
1473.1	-2.88462
1473.37	2.20896
1473.64	-1.85702
1473.9	2.21956
1474.17	-1.84387
1474.43	-0.818088
1474.7	1.22433
1474.96	0.212727
1475.23	-0.799776
1475.49	0.222307
1475.76	0.2265
1476.02	-1.80338
1476.29	1.25307
1476.55	0.238981
1476.82	1.26018
1477.09	0.24861
1477.35	3.30518
1477.62	0.259447
1477.88	2.29613
1478.15	-0.750629
1478.41	1.28599
1478.68	0.27298
1478.94	-0.740047
1479.21	-1.75308
1479.47	-1.7502
1479.74	-1.74856
1480	-0.732249
1480.27	-1.74475
1480.53	1.30319
1480.8	1.30668
1481.07	-1.73128
1481.33	-0.708828
1481.6	0.314533
1481.86	-2.72155
1482.12	1.34747
1482.39	0.339054
1482.65	-0.669373
1482.92	-0.66226
1483.19	-0.656115
1483.45	-1.66617
1483.72	0.366144
1483.98	-2.68048
1484.25	1.36875
1484.51	0.339695
1484.78	-1.69166
1485.04	-0.685703
1485.31	-0.661551
1485.57	2.39996
1485.84	-0.628325
1486.1	-0.631849
1486.37	-1.64034
1486.63	1.40948
1486.9	0.399334
1487.16	4.45228
1487.43	0.402958
1487.69	0.405798
1487.96	-1.61704
1488.22	0.40925
1488.49	1.42306
1488.75	-0.597822
1489.02	1.42949
1489.28	-0.590042
1489.54	-0.585303
1489.81	-0.58019
1490.07	0.435329
1490.34	-1.5852
1490.6	0.439363
1490.87	-0.568788
1491.13	-1.57571
1491.4	1.46203
1491.66	-1.56537
1491.93	2.48365
1492.19	-1.55614
1492.46	-0.540854
1492.72	1.48595
1492.99	-0.531778
1493.25	-2.54933
1493.52	-0.522854
1493.78	0.493637
1494.04	1.511
1494.31	-0.505922
1494.57	0.508108
1494.84	-3.53362
1495.1	1.51823
1495.37	0.507416
1495.63	-0.50115
1495.9	-1.50838
1496.16	1.52305
1496.43	3.54371
1496.69	0.519716
1496.96	-0.484859
1497.22	-0.480968
1497.48	-4.51372
1497.75	-1.4815
1498.01	0.541788
1498.28	0.546881
1498.54	0.55209
1498.81	-0.451777
1499.07	0.563431
1499.33	2.58859
1499.6	-3.46335
1499.86	0.579624
1500.13	-2.44511
1500.39	1.59718
1500.66	-0.418343
1500.92	1.60139
1501.18	-1.42344
1501.45	0.598745
1501.71	0.602568
1501.98	1.61511
1502.24	-0.401468
1502.51	-0.400883
1502.77	0.610575
1503.03	0.611336
1503.3	-1.40213
1503.56	-1.3965
1503.83	-0.382929
1504.09	0.630123
1504.35	2.65087
1504.62	-0.37154
1504.88	2.65532
1505.15	0.639925
1505.41	-2.38617
1505.68	0.638743
1505.94	3.66467
1506.2	-0.361573
1506.47	0.652984
1506.73	0.657736
1507	1.67043
1507.26	2.68255
1507.52	1.6779
1507.79	-0.334737
1508.05	-0.330716
1508.32	-0.326084
1508.58	-3.34468
1508.84	-2.33313
1509.11	2.70851
1509.37	-1.31749
1509.63	-0.30249
1509.9	-1.30928
1510.16	-1.30791
1510.43	-0.300012
1510.69	-1.30699
1510.95	-1.30796
1511.22	-1.31149
1511.48	1.70133
1511.75	1.69689
1512.01	0.686935
1512.27	-0.318249
1512.54	-0.318188
1512.8	-1.32171
1513.07	1.69119
1513.33	1.69561
1513.59	-0.300794
1513.86	0.710917
1514.12	-2.30026
1514.38	-0.290186
1514.65	-0.291274
1514.91	1.71656
1515.17	-1.29558
1515.44	-1.29639
1515.7	-2.2998
1515.96	-0.292099
1516.23	0.712978
1516.49	2.72055
1516.76	-1.28724
1517.02	0.721547
1517.28	-1.27958
1517.55	-0.271091
1517.81	-0.265918
1518.07	0.741466
1518.34	-1.26013
1518.6	0.750684
1518.86	0.755454
1519.13	0.759884
1519.39	0.763401
1519.65	2.7722
1519.92	-1.2385
1520.18	0.771274
1520.44	-0.227264
1520.71	1.78422
1520.97	0.785134
1521.23	1.79168
1521.5	1.79377
1521.76	-2.21762
1522.02	0.793415
1522.29	-0.208128
1522.55	-0.207048
1522.81	-1.21022
1523.08	1.79464
1523.34	-1.21351
1523.6	-1.21366
1523.87	0.789879
1524.13	-2.21375
1524.39	-0.207747
1524.66	-0.203443
1524.92	2.80483
1525.18	-0.194959
1525.45	-1.19097
1525.71	-1.18448
1525.97	-0.17582
1526.24	-3.17781
1526.5	1.83742
1526.76	-0.165798
1527.02	0.838011
1527.29	-1.16444
1527.55	0.841488
1527.81	1.84473
1528.08	0.843975
1528.34	-0.156363
1528.6	1.84896
1528.87	-1.15349
1529.13	-0.149567
1529.39	-0.148601
1529.65	-1.14844
1529.92	-2.14636
1530.18	-1.13968
1530.44	0.869807
1530.71	-0.126378
1530.97	0.879711
1531.23	-3.12608
1531.5	0.884878
1531.76	-0.115623
1532.02	-1.11435
1532.28	3.90227
1532.55	-6.11336
1532.81	0.912438
1533.07	1.92158
1533.34	-2.08627
1533.6	-0.0768394
1533.86	-2.08088
1534.12	-0.0729122
1534.39	0.931311
1534.65	0.932593
1534.91	-1.07231
1535.17	0.929214
1535.44	1.92775
1535.7	-1.07888
1535.96	1.92373
1536.22	0.919061
1536.49	0.915849
1536.75	-0.0850649
1537.01	-0.0858736
1537.28	1.91659
1537.54	0.916969
1537.8	-2.0848
1538.06	-1.08467
1538.33	0.915181
1538.59	-0.0797291
1538.85	0.930085
1539.11	0.944263
1539.38	0.956358
1539.64	-0.0357046
1539.9	1.97846
1540.16	-1.02118
1540.43	2.99622
1540.69	-2.01972
1540.95	-2.01887
1541.21	0.987533
1541.48	-0.0161009
1541.74	0.984288
1542	3.98712
1542.26	1.98253
1542.52	-1.02195
1542.79	-2.02359
1543.05	4.9786
1543.31	-0.0275459
1543.57	1.97417
1543.84	0.977177
1544.1	0.982079
1544.36	0.98943
1544.62	1.99599
1544.89	2.00494
1545.15	3.01368
1545.41	-0.987434
1545.67	-0.982855
1545.93	0.0207396
1546.2	2.02663
1546.46	0.0271711
1546.72	1.03313
1546.98	3.0421
1547.25	1.03951
1547.51	0.0312719
1547.77	2.0347
1548.03	3.037
1548.29	0.0429163
1548.56	2.03859
1548.82	-0.978921
1549.08	-0.984697
1549.34	1.02183
1549.61	-1.96475
1549.87	1.06451
1550.13	-1.92523
1550.39	3.12002
1550.65	1.10426
1550.91	3.11447
1551.18	0.103618
1551.44	2.10576
1551.7	0.104761
1551.96	1.12014
1552.22	2.12606
1552.49	3.13115
1552.75	3.11872
1553.01	2.1123
1553.27	0.107015
1553.53	1.10974
1553.79	2.1103
1554.06	2.10731
1554.32	4.10627
1554.58	-0.904153
1554.84	0.0984726
1555.1	2.10352
1555.37	5.11161
1555.63	-1.89719
1555.89	-0.895732
1556.15	1.10922
1556.41	2.11399
1556.68	0.11375
1556.94	3.12192
1557.2	2.1218
1557.46	1.1205
1557.72	3.11976
1557.98	2.11668
1558.25	1.11216
1558.51	2.10948
1558.77	-0.893953
1559.03	1.10464
1559.29	-0.895939
1559.55	1.10312
1559.82	0.103738
1560.08	4.10217
1560.34	1.10471
1560.6	-0.892352
1560.86	1.10867
1561.12	2.1127
1561.38	0.119148
1561.65	3.12692
1561.91	1.1302
1562.17	3.13205
1562.43	3.13258
1562.69	1.13478
1562.95	1.13597
1563.21	0.136392
1563.48	2.1419
1563.74	2.15073
1564	3.15731
1564.26	-0.843357
1564.52	-0.845829
1564.78	2.13476
1565.04	2.09777
1565.3	2.06368
1565.57	3.10793
1565.83	4.15111
1566.09	0.155338
1566.35	1.14501
1566.61	-0.846413
1566.87	3.17045
1567.13	2.1751
1567.39	-0.833313
1567.66	-1.83315
1567.92	0.170305
1568.18	2.17371
1568.44	-0.824453
1568.7	-1.82641
1568.96	1.16977
1569.22	-1.82732
1569.48	3.17218
1569.75	3.17482
1570.01	1.17825
1570.27	1.18003
1570.53	4.17949
1570.79	3.1807
1571.05	3.18015
1571.31	3.17859
1571.57	2.18028
1571.83	0.182931
1572.1	0.182047
1572.36	3.17691
1572.62	2.17783
1572.88	2.17692
1573.14	4.17202
1573.4	1.17903
1573.66	0.184832
1573.92	0.189956
1574.18	0.19539
1574.44	1.19991
1574.7	5.20204
1574.97	1.21108
1575.23	2.21396
1575.49	3.21434
1575.75	2.21635
1576.01	2.21705
1576.27	2.21456
1576.53	0.212769
1576.79	1.20719
1577.05	1.20319
1577.31	3.19486
1577.57	2.1936
1577.83	3.18842
1578.1	3.18833
1578.36	4.18661
1578.62	2.19435
1578.88	4.18997
1579.14	1.20148
1579.4	0.208261
1579.66	0.21155
1579.92	5.20003
1580.18	3.20708
1580.44	3.20723
1580.7	1.21229
1580.96	2.20876
1581.22	-0.782533
1581.48	2.20524
1581.74	0.212373
1582	-1.77946
1582.26	1.20977
1582.53	2.20654
1582.79	0.215425
1583.05	2.20906
1583.31	-0.778691
1583.57	4.20205
1583.83	5.20103
1584.09	3.21215
1584.35	1.22262
1584.61	2.22067
1584.87	2.22153
1585.13	1.22674
1585.39	3.21951
1585.65	3.21771
1585.91	2.21925
1586.17	1.2221
1586.43	1.22138
1586.69	2.21629
1586.95	6.19632
1587.21	-1.76282
1587.47	2.21828
1587.73	0.231046
1587.99	3.21945
1588.25	5.21417
1588.51	1.23711
1588.77	-0.749999
1589.03	1.2444
1589.29	-0.744199
1589.55	3.23989
1589.81	4.23821
1590.07	2.25038
1590.33	3.25009
1590.59	1.25989
1590.85	1.26154
1591.12	1.2624
1591.38	2.25858
1591.64	1.26165
1591.9	2.2537
1592.16	2.25054
1592.42	5.23455
1592.68	-0.737524
1592.94	4.22973
1593.2	2.23548
1593.46	3.2252
1593.72	2.23018
1593.98	2.23098
1594.24	3.22714
1594.5	3.23237
1594.76	1.24944
1595.02	0.259694
1595.28	2.24145
1595.54	1.24768
1595.8	1.24921
1596.06	0.257673
1596.32	2.24619
1596.58	4.23548
1596.84	1.2585
1597.09	4.24233
1597.35	4.24422
1597.61	1.26428
1597.87	4.24352
1598.13	3.24726
1598.39	1.25859
1598.65	1.25693
1598.91	4.23299
1599.17	0.262413
1599.43	0.261419
1599.69	5.22018
1599.95	4.22646
1600.21	3.23235
1600.47	2.23745
1600.73	1.24257
1600.99	1.23878
1601.25	1.23564
1601.51	5.19389
1601.77	5.19159
1602.03	2.22008
1602.29	4.19647
1602.55	3.20446
1602.81	2.21336
1603.07	1.22362
1603.33	1.22355
1603.59	0.235743
1603.85	-0.7513
1604.11	3.20581
1604.37	3.20766
1604.63	3.2096
1604.89	1.23413
1605.14	2.22546
1605.4	1.24014
1605.66	3.222
1605.92	1.24757
1606.18	1.25101
1606.44	1.25419
1606.7	4.22506
1606.96	3.23725
1607.22	-0.712492
1607.48	3.2365
1607.74	-0.661782
1608	2.24727
1608.26	3.1009
1608.52	2.13346
1608.78	2.96865
1609.04	2.16457
1609.29	1.16358
1609.55	1.9392
1609.81	1.46534
1610.07	3.10313
1610.33	6.38463
1610.59	4.62387
1610.85	3.05321
1611.11	1.55572
1611.37	4.03031
1611.63	1.28126
1611.89	0.802353
1612.15	3.82831
1612.4	6.28583
1612.66	2.27397
1612.92	1.6419
1613.18	1.045
1613.44	3.48612
1613.7	2.63191
1613.96	0.223599
1614.22	-0.485581
1614.48	3.8515
1614.74	4.35462
1615	0.914001
1615.25	2.90333
1615.51	2.89413
1615.77	-0.397516
1616.03	2.04529
1616.29	2.2783
1616.55	2.90022
1616.81	1.34102
1617.07	4.00947
1617.33	3.14339
1617.59	2.36788
1617.84	4.33654
1618.1	3.06249
1618.36	4.1578
1618.62	2.96212
1618.88	1.6022
1619.14	3.47544
1619.4	2.79216
1619.66	3.69802
1619.91	3.25999
1620.17	2.25393
1620.43	1.97078
1620.69	2.5541
1620.95	2.85709
1621.21	1.13236
1621.47	1.3187
1621.73	1.96977
1621.98	1.66705
1622.24	3.50629
1622.5	1.17613
1622.76	0.0370092
1623.02	1.55594
1623.28	2.57759
1623.54	1.22382
1623.79	1.85216
1624.05	1.74062
1624.31	1.15268
1624.57	3.97045
1624.83	2.24474
1625.09	3.21742
1625.35	2.76727
1625.6	1.49996
1625.86	0.239266
1626.12	0.271852
1626.38	3.01065
1626.64	0.910877
1626.9	0.370302
1627.16	1.01267
1627.41	5.49817
1627.67	3.16789
1627.93	1.00248
1628.19	5.1781
1628.45	2.19375
1628.71	1.81068
1628.96	-2.7335
1629.22	1.75315
1629.48	2.44392
1629.74	3.14119
1630	4.17173
1630.26	4.20047
1630.51	2.23307
1630.77	4.23715
1631.03	0.438225
1631.29	4.16548
1631.3	4.29922
1631.56	3.31889
1631.82	2.33506
1632.08	4.31175
1632.34	3.33649
1632.6	-0.609035
1632.86	1.35639
1633.13	3.32554
1633.39	1.35826
1633.65	0.377072
1633.91	0.379923
1634.17	0.382128
1634.43	4.32652
1634.69	1.37063
1634.96	1.37144
1635.22	3.34296
1635.48	2.35745
1635.74	4.32775
1636	4.32708
1636.26	2.35609
1636.52	2.35513
1636.79	-0.60062
1637.05	6.29196
1637.31	2.35462
1637.57	2.35488
1637.83	2.35481
1638.09	1.3706
1638.35	3.3412
1638.61	3.34307
1638.87	2.36028
1639.13	3.34627
1639.4	3.34783
1639.66	-0.588349
1639.92	5.31902
1640.18	1.38687
1640.44	2.37577
1640.7	2.3786
1640.96	1.3947
1641.22	-0.574582
1641.48	1.39506
1641.75	3.36475
1642.01	4.35014
1642.27	-1.55513
1642.53	2.38345
1642.79	1.40038
1643.05	2.38621
1643.31	2.38663
1643.57	2.38654
1643.83	1.40184
1644.09	1.40091
1644.35	3.36967
1644.62	3.37211
1644.88	0.424884
1645.14	4.3639
1645.4	-0.553948
1645.66	3.38254
1645.92	2.39819
1646.18	2.39803
1646.44	1.41474
1646.7	3.38246
1646.96	0.431344
1647.22	-0.551674
1647.48	-0.550601
1647.74	3.38548
1648.01	1.42285
1648.27	4.37907
1648.53	2.42035
1648.79	1.44396
1649.05	1.44354
1649.31	3.41244
1649.57	0.460411
1649.83	-0.518722
1650.09	3.42665
1650.35	6.38661
1650.61	0.481426
1650.87	1.47078
1651.13	1.47368
1651.39	1.47567
1651.65	2.4629
1651.92	3.45072
1652.18	2.46596
1652.44	-0.490492
1652.7	1.48079
1652.96	5.42343
1653.22	2.47017
1653.48	1.48816
1653.74	1.49121
1654	-0.477324
1654.26	3.46765
1654.52	2.48589
1654.78	-0.46669
1655.04	2.49753
1655.3	1.51894
1655.56	1.52514
1655.82	1.52973
1656.08	0.546116
1656.34	4.49724
1656.6	-0.436807
1656.86	-1.42319
1657.12	3.51184
1657.38	1.5385
1657.64	0.552294
1657.9	3.51259
1658.16	1.53874
1658.42	2.52455
1658.69	2.52372
1658.95	0.55065
1659.21	4.49409
1659.47	3.50601
1659.73	3.50837
1659.99	2.52648
1660.25	2.5309
1660.51	1.54949
1660.77	1.55431
1661.03	1.55964
1661.29	2.54966
1661.55	-3.36684
1661.81	-0.420719
1662.07	1.58144
1662.33	0.616364
1662.59	2.587
1662.85	-0.37921
1663.11	3.57932
1663.37	1.55988
1663.63	2.56826
1663.89	4.54998
1664.15	2.57714
1664.41	0.61228
1664.67	0.620461
1664.93	-0.37741
1665.19	3.53751
1665.45	1.6199
1665.71	0.63871
1665.97	4.5908
1666.23	1.62379
1666.49	1.54296
1666.75	2.59399
1667.01	0.617945
1667.27	-1.35698
1667.53	-0.369464
1667.79	1.60275
1668.05	1.60393
1668.31	-1.34916
1668.56	2.61211
1668.83	1.62863
1669.09	0.642986
1669.35	2.6209
1669.6	-1.32902
1669.86	0.646352
1670.12	-0.332736
1670.38	0.664503
1670.64	0.664792
1670.9	3.6303
1671.16	2.64298
1671.42	1.6566
1671.68	1.66012
1671.94	3.63952
1672.2	-1.30117
1672.46	1.66595
1672.72	2.6567
1672.98	0.682038
1673.24	0.684808
1673.5	1.67688
1673.76	2.66974
1674.02	2.67382
1674.28	2.67779
1674.54	-1.27463
1674.8	1.69799
1675.06	1.70138
1675.32	3.68295
1675.58	0.715571
1675.83	0.717684
1676.1	0.720324
1676.35	4.68161
1676.61	1.71406
1676.87	-1.25406
1677.13	-0.26382
1677.39	-0.263955
1677.65	1.71374
1677.91	-0.266207
1678.17	-0.267196
1678.43	4.67625
1678.69	1.70971
1678.95	-0.267125
1679.21	1.71016
1679.47	2.69858
1679.73	3.68721
1679.98	1.71085
1680.25	-0.265229
1680.5	1.7112
1680.76	-0.263826
1681.02	1.71345
1681.28	3.69087
1681.54	1.71679
1681.8	2.7066
1682.06	2.70871
1682.32	0.734139
1682.58	2.71119
1682.84	1.72482
1683.1	1.72654
1683.35	-0.247769
1683.61	1.72876
1683.87	0.74058
1684.13	3.70356
1684.39	3.70427
1684.65	1.73041
1684.91	0.744352
1685.17	0.746001
1685.43	0.747847
1685.69	-0.237603
1685.95	-0.234937
1686.2	-2.20572
1686.46	-0.226716
1686.72	0.763556
1686.98	0.764313
1687.24	0.7643
1687.5	2.73947
1687.76	-2.19807
1688.02	-0.222765
1688.28	-4.17211
1688.54	1.74981
1688.79	-0.225046
1689.05	1.74768
1689.31	0.759789
1689.57	-1.21471
1689.83	-0.228853
1690.09	3.72245
1690.35	1.75357
1690.6	1.75689
1690.86	1.75961
1691.12	0.775923
1691.38	-0.207561
1691.64	-0.205623
1691.9	-1.19146
1692.16	-0.204629
1692.42	0.78095
1692.68	-0.207051
1692.93	-2.18138
1693.19	0.774184
1693.45	0.772362
1693.71	2.74213
1693.97	1.75496
1694.23	-0.216078
1694.49	4.71016
1694.74	2.74275
1695	2.74553
1695.26	-1.19252
1695.52	0.780643
1695.78	0.784266
1696.04	1.77319
1696.3	-0.195913
1696.55	1.77553
1696.81	1.77448
1697.07	0.787142
1697.33	0.784767
1697.59	2.75214
1697.85	1.7664
1698.11	1.7654
1698.36	-0.203329
1698.62	1.76512
1698.88	-0.201597
1699.14	1.76867
1699.4	2.75475
1699.66	1.77268
1699.92	0.788142
1700.17	-0.195133
1700.43	-2.16155
1700.69	2.75806
1700.95	0.791057
1701.21	1.77396
1701.46	2.75579
1701.72	1.7712
1701.98	-1.17907
1702.24	-1.17986
1702.5	0.786088
1702.76	0.787289
1703.01	-0.194487
1703.27	1.77087
1703.53	1.77144
1703.79	1.77421
1704.05	-0.187174
1704.3	-0.184761
1704.56	-0.183598
1704.82	-1.16543
1705.08	1.78386
1705.34	0.803193
1705.6	3.75014
1705.85	-0.18095
1706.11	-2.14664
1706.37	0.797255
1706.63	0.795031
1706.89	-0.187816
1707.14	3.73441
1707.4	-0.192692
1707.66	1.76527
1707.92	1.76191
1708.18	1.75758
1708.43	2.7331
1708.69	-0.207006
1708.95	-1.18673
1709.21	1.75073
1709.47	-1.18479
1709.72	-0.203945
1709.98	2.73504
1710.24	1.75872
1710.5	0.783854
1710.76	0.786961
1711.01	0.789993
1711.27	0.792896
1711.53	0.795096
1711.79	-0.183964
1712.04	-0.185815
1712.3	0.788722
1712.56	-0.194441
1712.82	-0.198979
1713.08	1.75323
1713.33	0.770753
1713.59	-0.207646
1713.85	0.769
1714.11	-0.20769
1714.36	-0.206936
1714.62	0.77097
1714.88	0.774317
1715.14	1.75727
1715.4	-1.17222
1715.65	-0.194555
1715.91	-1.17172
1716.17	0.780608
1716.43	-0.198313
1716.68	-2.15374
1716.94	-0.205799
1717.2	0.764143
1717.46	-1.19089
1717.71	1.72889
1717.97	0.750718
1718.23	2.69637
1718.49	2.69551
1718.74	-0.224444
1719	-3.14376
1719.26	-2.16915
1719.52	-0.219925
1719.78	-0.217229
1720.03	-1.19041
1720.29	1.72931
1720.55	1.72678
1720.81	0.751545
1721.06	-0.222542
1721.32	1.72095
1721.58	1.71858
1721.83	-3.14437
1722.09	1.71345
1722.35	-1.20365
1722.61	-1.20495
1722.86	-0.234568
1723.12	0.736287
1723.38	-0.233682
1723.64	0.738023
1723.89	1.7095
1724.15	-1.20346
1724.41	2.67703
1724.66	2.67226
1724.92	-1.21183
1725.18	-2.18464
1725.44	0.721142
1725.69	-2.18663
1725.95	0.722682
1726.21	-0.245412
1726.46	0.723085
1726.72	-1.21741
1726.98	-0.248605
1727.24	2.66189
1727.49	1.69474
1727.75	1.69378
1728.01	-0.246631
1728.27	-1.22918
1728.52	-2.21335
1728.78	0.673735
1729.04	0.680921
1729.29	0.690612
1729.55	-1.23395
1729.81	-1.23814
1730.06	0.689801
1730.32	0.689192
1730.58	-2.19354
1730.83	0.710124
1731.09	-0.254328
1731.35	-2.18596
1731.61	-0.252264
1731.86	0.714185
1732.12	0.714161
1732.38	-1.21865
1732.63	-1.21975
1732.89	-0.25644
1733.15	0.704895
1733.4	0.699694
1733.66	-0.26793
1733.92	-1.23503
1734.17	-0.273878
1734.43	-2.20416
1734.69	2.60981
1734.95	-3.1717
1735.2	0.678485
1735.46	-0.285204
1735.72	2.60252
1735.97	2.60238
1736.23	0.676977
1736.49	-0.28573
1736.74	0.675721
1737	-2.21065
1737.26	1.6365
1737.51	-0.287941
1737.77	-3.17373
1738.03	1.63144
1738.28	-0.292459
1738.54	-0.294273
1738.8	-1.25726
1739.05	-1.26047
1739.31	0.654626
1739.57	-0.309847
1739.82	1.60408
1740.08	-1.27566
1740.34	2.55604
1740.59	-0.320837
1740.85	3.50929
1741.1	-0.324044
1741.36	-1.28269
1741.62	0.632207
1741.88	-0.324779
1742.13	0.63306
1742.39	2.54739
1742.64	-0.324018
1742.9	-0.323029
1743.16	0.634425
1743.41	1.58988
1743.67	-1.28198
1743.93	0.630743
1744.18	0.63066
1744.44	-0.324499
1744.69	-0.322936
1744.95	0.63508
1745.21	1.59232
1745.46	-0.320821
1745.72	-0.322067
1745.98	-1.28016
1746.23	0.628721
1746.49	-2.23998
1746.74	0.62377
1747	-2.24348
1747.26	-0.335346
1747.51	-2.24524
1747.77	-0.335153
1748.03	-0.333688
1748.28	0.622768
1748.54	-1.28425
1748.8	0.628014
1749.05	-0.323227
1749.31	1.591
1749.56	2.55123
1749.82	-0.310122
1750.08	-0.305729
1750.33	-2.2146
1750.59	0.655859
1750.84	1.61398
1751.1	-1.25408
1751.36	-1.25613
1751.61	-0.303414
1751.87	-0.305532
1752.12	-0.307214
1752.38	-1.26377
1752.64	1.59817
1752.89	-4.12962
1753.15	-2.22175
1753.4	4.45567
1753.66	0.637787
1753.92	-1.27144
1754.17	-1.27232
1754.43	-1.27287
1754.68	1.58644
1754.94	0.632684
1755.2	-0.321353
1755.45	0.629788
1755.71	1.57998
1755.96	0.624818
1756.22	2.5253
1756.47	-0.333744
1756.73	-0.336609
1756.99	-0.337439
1757.24	-1.28903
1757.5	-1.28743
1757.75	1.5715
1758.01	0.623231
1758.27	3.47962
1758.52	2.52957
1758.78	-1.27528
1759.03	0.629889
1759.29	0.631064
1759.54	-1.27184
1759.8	-0.320216
1760.05	-0.32028
1760.31	0.63072
1760.57	-1.27262
1760.82	-1.27402
1761.08	1.57713
1761.33	-0.325083
1761.59	-0.324918
1761.84	0.625602
1762.1	0.629484
1762.36	-2.21982
1762.61	-1.26732
1762.87	1.58552
1763.12	-0.31452
1763.38	1.58939
1763.63	0.64118
1763.89	2.54693
1764.14	-4.10559
1764.4	-0.295965
1764.66	0.659045
1764.91	-0.290258
1765.17	-0.288055
1765.42	-0.286279
1765.68	-1.23707
1765.93	-0.284171
1766.19	-1.236
1766.44	-3.13981
1766.7	-2.18678
1766.95	-4.0902
1767.21	3.5234
1767.46	-2.18779
1767.72	0.666524
1767.98	-1.2369
1768.23	-0.284588
1768.48	-0.288428
1768.74	0.655052
1769	-2.20108
1769.25	0.643351
1769.51	0.644681
1769.76	0.648397
1770.02	1.60442
1770.27	-0.294362
1770.53	-0.292431
1770.78	-1.2387
1771.04	-1.23252
1771.29	-1.22908
1771.55	2.5762
1771.8	-0.273437
1772.06	-0.269528
1772.31	-0.266103
1772.57	-1.21479
1772.82	-0.260515
1773.08	-2.16149
1773.33	0.696378
1773.59	-0.253247
1773.84	0.700709
1774.1	1.65459
1774.35	0.705397
1774.61	1.66022
1774.86	3.56862
1775.12	1.67121
1775.37	-0.229067
1775.63	-1.17922
1775.88	-2.13083
1776.14	-3.08349
1776.39	0.729122
1776.65	-0.225368
1776.9	-0.226025
1777.16	-0.227272
1777.41	0.723846
1777.67	-1.18274
1777.92	1.67271
1778.18	-2.13782
1778.43	-1.18805
1778.69	-1.19064
1778.94	-0.240664
1779.2	1.66248
1779.45	-2.13913
1779.71	-0.233381
1779.96	1.67215
1780.21	0.722669
1780.47	0.725159
1780.73	-1.17731
1780.98	-3.07989
1781.23	-1.17377
1781.49	0.733391
1781.74	-0.215662
1782	-0.211514
1782.25	0.744556
1782.51	0.747377
1782.76	1.70302
1783.02	-0.200266
1783.27	-4.01058
1783.53	-0.194505
1783.78	0.762406
1784.04	-1.14048
1784.29	0.770731
1784.54	1.72725
1784.8	0.774274
1785.05	2.68274
1785.31	-1.13395
1785.56	0.773147
1785.82	1.72799
1786.07	-0.177852
1786.33	1.73343
1786.58	1.73764
1786.84	-1.12095
1787.09	-1.11566
1787.34	-2.06254
1787.6	-0.14174
1787.85	-0.131444
1788.11	-0.123786
1788.36	0.836899
1788.62	-2.03194
1788.87	0.847666
1789.12	-0.105489
1789.38	-2.0195
1789.63	-0.100151
1789.89	1.82024
1790.14	1.82154
1790.4	0.862918
1790.65	-0.0961409
1790.91	0.852211
1791.16	-1.06361
1791.41	1.80868
1791.67	2.76725
1791.92	1.81124
1792.18	-1.0607
1792.43	2.77358
1792.68	-1.05605
1792.94	-0.0964584
1793.19	-2.97018
1793.45	0.865166
1793.7	1.82464
1793.96	-0.0905199
1794.21	-0.0922022
1794.46	0.868649
1794.72	-0.0772314
1794.97	2.81021
1795.23	-1.02334
1795.48	0.899489
1795.73	3.78358
1795.99	-0.0536823
1796.24	0.910449
1796.49	0.914333
1796.75	-0.0429211
1797	3.80473
1797.26	-0.0370359
1797.51	0.926748
1797.76	-0.993939
1798.02	0.930816
1798.27	0.931899
1798.53	-0.0295477
1798.78	1.89266
1799.04	2.85236
1799.29	0.927629
1799.54	0.925507
1799.8	-0.0367537
1800.05	1.88361
1800.3	-2.92011
1800.56	-3.88065
1800.81	1.88271
1801.07	0.922853
1801.32	0.92404
1801.57	-1.95607
1801.83	-0.993542
1802.08	-0.991177
1802.33	-0.988328
1802.59	-0.0238905
1802.84	-0.0201483
1803.1	-0.978359
1803.35	-0.0145655
1803.6	-0.0130787
1803.86	-1.93455
1804.11	1.91653
1804.36	-1.92863
1804.62	0.961944
1804.87	0.00372601
1805.13	0.00790024
1805.38	0.97487
1805.63	-0.94832
1805.89	-0.945532
1806.14	1.9479
1806.39	-0.941069
1806.65	0.0239449
1806.9	0.0247822
1807.15	-0.938304
1807.41	0.0262957
1807.66	1.95487
1807.91	1.95591
1808.17	0.0292482
1808.42	0.0303984
1808.67	0.995574
1808.93	0.0327368
1809.18	-0.930112
1809.43	-0.92892
1809.69	1.00047
1809.94	0.0371599
1810.2	2.92965
1810.45	1.0012
1810.7	-1.89072
1810.95	1.00181
1811.21	-2.85402
1811.46	-0.925249
1811.71	-3.81644
1811.97	0.0420046
1812.22	1.00882
1812.47	1.0121
1812.73	-1.87879
1812.98	-0.912911
1813.23	0.0542116
1813.49	-1.87236
1813.74	2.95822
1813.99	-1.86474
1814.25	1.03808
1814.5	-0.890658
1814.75	1.04481
1815.01	2.01316
1815.26	-0.884778
1815.51	0.0828514
1815.77	2.0174
1816.02	0.0854397
1816.27	2.02109
1816.53	1.05376
1816.78	-2.81319
1817.03	2.97925
1817.29	1.04106
1817.54	-0.88961
1817.79	0.0789967
1818.04	0.0831814
1818.3	0.0869694
1818.55	2.01909
1818.8	-0.878631
1819.06	0.0899172
1819.31	-0.874413
1819.56	1.06077
1819.81	-1.83766
1820.07	0.0985308
1820.32	-0.866409
1820.57	2.03691
1820.83	0.104792
1821.08	2.04259
1821.33	-0.857513
1821.58	0.112369
1821.84	0.114202
1822.09	1.08369
1822.34	1.085
1822.6	0.118206
1822.85	3.02293
1823.1	0.117953
1823.35	0.117043
1823.61	-0.851152
1823.86	0.118217
1824.11	2.05603
1824.37	2.05788
1824.62	-0.844763
1824.87	-0.842892
1825.12	-2.77816
1825.38	2.06478
1825.63	1.09673
1825.88	0.128869
1826.14	1.09826
1826.39	0.1305
1826.64	0.131684
1826.89	0.133433
1827.15	-0.833391
1827.4	-0.83159
1827.65	1.10704
1827.9	-2.76872
1828.16	3.04359
1828.41	0.135575
1828.66	-0.834113
1828.91	-0.83431
1829.17	-0.834374
1829.42	1.10217
1829.67	1.101
1829.92	-0.836931
1830.18	1.09837
1830.43	1.09835
1830.68	4.97313
1830.93	-1.80236
1831.19	1.10515
1831.44	2.07612
1831.69	-0.827702
1831.94	4.01891
1832.2	1.11547
1832.45	1.11831
1832.7	1.11929
1832.95	-0.818734
1833.2	1.12144
1833.46	0.153308
1833.71	-0.815044
1833.96	-0.817057
1834.21	-3.7298
1834.47	1.10699
1834.72	3.03618
1834.97	1.09568
1835.22	1.09197
1835.47	-0.843305
1835.73	3.02326
1835.98	1.1363
1836.23	-1.76093
1836.48	2.10107
1836.74	1.12196
1836.99	0.144314
1837.24	-0.832634
1837.49	0.122526
1837.75	1.07898
1838	0.11016
1838.25	0.129207
1838.5	1.112
1838.75	0.149351
1839.01	4.02809
1839.26	0.154402
1839.51	3.06585
1839.76	1.11711
1840.01	-0.830212
1840.26	1.0968
1840.52	2.05601
1840.77	1.08227
1841.02	-0.856027
1841.27	1.06986
1841.53	1.0645
1841.78	0.094799
1842.03	-1.83861
1842.28	1.05641
1842.53	0.0914927
1842.79	2.02198
1843.04	-1.83611
1843.29	-0.87129
1843.54	-0.872191
1843.79	2.0213
1844.04	0.0939465
1844.3	-0.869918
1844.55	0.0930967
1844.8	0.0933704
1845.05	2.02294
1845.3	-0.865996
1845.56	1.07065
1845.81	-1.82027
1846.06	0.12071
1846.31	3.98008
1846.56	2.99237
1846.81	0.074585
1847.06	1.02998
1847.32	-2.82085
1847.57	2.96244
1847.82	-0.882756
1848.07	1.03842
1848.32	1.03396
1848.58	1.03429
1848.83	-2.81874
1849.08	0.0656662
1849.33	-1.86281
1849.58	-0.90421
1849.83	-1.87054
1850.08	1.00966
1850.34	-0.916094
1850.59	1.00268
1850.84	0.999934
1851.09	-0.922961
1851.34	0.996346
1851.59	0.995696
1851.85	0.995683
1852.1	-0.924562
1852.35	-0.924407
1852.6	0.0357008
1852.85	0.995183
1853.1	0.993907
1853.36	0.0314713
1853.61	0.987537
1853.86	-0.935781
1854.11	0.978477
1854.36	0.0171366
1854.61	0.97422
1854.86	0.970376
1855.11	-0.950935
1855.37	1.92026
1855.62	0.96109
1855.87	-1.91315
1856.12	0.0025425
1856.37	0.00272179
1856.62	1.91786
1856.87	0.00135136
1857.13	-0.000178337
1857.38	0.955779
1857.63	-1.91833
1857.88	-0.00622654
1858.13	-2.88008
1858.38	-0.969099
1858.63	-0.0156012
1858.88	-1.93153
1859.14	1.89039
1859.39	-0.0222483
1859.64	0.934125
1859.89	-0.0212746
1860.14	0.937482
1860.39	1.8969
1860.64	-0.0138407
1860.89	-0.967924
1861.14	-0.965553
1861.39	1.90646
1861.64	-0.964834
1861.9	-2.88012
1862.15	0.944191
1862.4	-1.92842
1862.65	2.84968
1862.9	-0.977926
1863.15	-0.0249252
1863.4	-0.983142
1863.65	-0.985423
1863.9	-1.94283
1864.16	0.920265
1864.41	-0.992334
1864.66	0.913783
1864.91	-0.0448093
1865.16	-1.00333
1865.41	0.899258
1865.66	0.893175
1865.91	-0.0659542
1866.16	0.88076
1866.41	-0.0774364
1866.66	-1.03474
1866.92	0.862976
1867.17	-0.0925827
1867.42	1.80647
1867.67	-2.9489
1867.92	-0.0977383
1868.17	-0.0976543
1868.42	-0.0968561
1868.67	-1.0474
1868.92	0.853375
1869.17	-0.0980721
1869.42	1.80229
1869.67	1.80154
1869.92	0.850364
1870.17	1.80023
1870.42	1.79988
1870.68	-2.00185
1870.93	-1.05217
1871.18	-3.9042
1871.43	-0.10544
1871.68	-0.107247
1871.93	-1.05842
1872.18	0.838902
1872.43	-0.113575
1872.68	2.7325
1872.93	2.73155
1873.18	-1.06652
1873.43	-0.119039
1873.68	-0.121492
1873.93	0.824292
1874.18	-1.07631
1874.43	-1.07956
1874.68	-2.03102
1874.93	-0.138798
1875.18	0.803949
1875.44	0.796328
1875.69	-2.04934
1875.94	1.73207
1876.19	1.72812
1876.44	-3.00367
1876.69	1.719
1876.94	-2.06994
1877.19	0.749454
1877.44	-1.13283
1877.69	-1.09208
1877.94	-0.150093
1878.19	-0.160789
1878.44	0.783457
1878.69	-2.99264
1878.94	0.803192
1879.19	0.80057
1879.44	1.74277
1879.69	-0.152277
1879.94	1.74047
1880.19	-2.9914
1880.44	-1.09931
1880.69	-1.10042
1880.94	-1.10486
1881.19	0.780754
1881.44	-1.11749
1881.69	1.71061
1881.94	-0.187166
1882.19	-0.196468
1882.44	0.742085
1882.69	-0.210251
1882.94	-2.03211
1883.19	1.72132
1883.44	-1.15352
1883.69	1.66908
1883.94	-0.208537
1884.19	0.729359
1884.44	0.732656
1884.69	-0.203296
1884.94	0.74303
1885.19	-0.198635
1885.44	-2.08069
1885.69	0.755496
1885.94	1.7025
1886.19	-1.13158
1886.44	0.751722
1886.69	-0.19576
1886.94	1.68827
1887.19	0.741124
1887.44	1.68054
1887.69	-0.209478
1887.94	-0.214742
1888.19	1.66472
1888.44	0.717971
1888.69	1.65473
1888.94	0.710256
1889.19	-2.11416
1889.44	-1.17367
1889.69	1.65132
1889.94	-0.228396
1890.19	0.717034
1890.44	-1.16547
1890.69	-1.16568
1890.94	-1.16708
1891.19	1.65818
1891.44	-0.226237
1891.69	-2.11043
1891.94	0.71436
1892.19	1.6539
1892.44	-0.231745
1892.69	-1.17705
1892.94	-0.243663
1893.19	0.689272
1893.43	-1.19391
1893.69	-0.250022
1893.93	-0.255443
1894.18	0.68147
1894.43	0.680059
1894.68	-0.259075
1894.93	-1.19763
1895.18	1.62259
1895.43	-1.19479
1895.68	-0.253272
1895.93	0.688901
1896.18	1.63203
1896.43	0.694487
1896.68	-0.243978
1896.93	-0.242547
1897.18	0.698895
1897.43	-0.241669
1897.68	-1.18298
1897.93	0.696736
1898.17	-1.18641
1898.42	-1.18916
1898.67	1.62729
1898.92	0.684326
1899.17	-0.256824
1899.42	-1.19792
1899.67	-1.19975
1899.92	2.55713
1900.17	-1.19999
1900.42	1.61963
1900.67	-2.13637
1900.92	-0.254153
1901.17	-0.251513
1901.42	-1.18882
1901.67	1.63522
1901.91	-0.242083
1902.16	1.63988
1902.41	0.697972
1902.66	-1.18442
1902.91	1.63524
1903.16	0.693516
1903.41	-0.247685
1903.66	-1.18855
1903.91	-2.1291
1904.16	2.57137
1904.41	1.63046
1904.66	0.689681
1904.9	-0.25052
1905.15	1.62898
1905.4	-1.19381
1905.65	0.680023
1905.9	3.49592
1906.15	-1.20212
1906.4	-1.20345
1906.65	-0.265326
1906.9	-0.265436
1907.15	-1.20354
1907.39	0.676129
1907.64	0.679247
1907.89	-1.19827
1908.14	-0.257998
1908.39	-2.13591
1908.64	-1.19427
1908.89	-0.251753
1909.14	-0.248341
1909.39	-0.244247
1909.63	-1.18049
1909.88	1.64739
1910.13	-2.11322
1910.38	-2.11033
1910.63	2.60086
1910.88	-0.223075
1911.13	-1.16429
1911.38	-2.10624
1911.62	0.719003
1911.87	-0.22398
1912.12	2.60129
1912.37	-0.224247
1912.62	-0.22411
1912.87	-0.223683
1913.12	-0.221861
1913.37	1.66644
1913.61	-0.213561
1913.86	0.732794
1914.11	-0.20718
1914.36	-0.20406
1914.61	0.7422
1914.86	-0.19898
1915.11	-1.14152
1915.36	-0.197937
1915.6	2.6318
1915.85	-1.14322
1916.1	-1.14453
1916.35	-2.09041
1916.6	1.67963
1916.85	-3.97996
1917.1	-0.209846
1917.34	2.61752
1917.59	2.61776
1917.84	0.734194
1918.09	-1.14872
1918.34	0.741389
1918.59	-1.14136
1918.84	-0.193255
1919.08	2.64514
1919.33	-0.182367
1919.58	-1.12416
1919.83	-0.178243
1920.08	0.765499
1920.32	-2.06888
1920.57	-0.175683
1920.82	-0.171865
1921.07	-0.169288
1921.32	-0.167371
1921.57	-2.0573
1921.82	-1.11126
1922.06	-1.11198
1922.31	0.777474
1922.56	0.775384
1922.81	0.773982
1923.06	1.7182
1923.3	-0.173475
1923.55	1.71499
1923.8	-2.06727
1924.05	0.765568
1924.3	0.764954
1924.55	2.65504
1924.79	-0.177535
1925.04	0.770406
1925.29	0.774805
1925.54	0.779215
1925.79	-2.05445
1926.03	2.67965
1926.28	0.792045
1926.53	1.74225
1926.78	1.74489
1927.03	-1.09362
1927.27	-0.144731
1927.52	-0.142959
1927.77	-1.08859
1928.02	1.75471
1928.27	-0.138267
1928.52	-0.136271
1928.76	5.55267
1929.01	1.76503
1929.26	-1.07493
1929.51	-0.122766
1929.75	-0.118558
1930	-0.114841
1930.25	-1.06041
1930.5	0.840095
1930.75	1.79017
1930.99	-0.109369
1931.24	-0.110909
1931.49	-1.06176
1931.74	-0.114328
1931.99	-1.06498
1932.23	1.77954
1932.48	1.77869
1932.73	4.62291
1932.98	-1.06825
1933.22	-2.0137
1933.47	-0.109418
1933.72	1.7993
1933.97	1.81285
1934.22	-1.97955
1934.46	0.886528
1934.71	-1.00963
1934.96	2.81075
1935.21	-0.0442352
1935.45	-0.0507975
1935.7	0.899308
1935.95	-3.86635
1936.2	3.75598
1936.45	1.84731
1936.69	2.79628
1936.94	0.888283
1937.19	-1.97092
1937.44	-1.02102
1937.68	2.7836
1937.93	-0.0720243
1938.18	-1.97177
1938.43	-1.96956
1938.67	0.88922
1938.92	2.79681
1939.17	0.894172
1939.42	0.896749
1939.66	-1.00768
1939.91	-0.0518131
1940.16	-0.0481043
1940.41	-0.993515
1940.65	0.920897
1940.9	-1.9409
1941.15	1.87477
1941.4	0.916086
1941.64	-0.998672
1941.89	-0.0423946
1942.14	-0.0292578
1942.39	0.931079
1942.63	-0.0226564
1942.88	-1.93612
1943.13	2.82942
1943.37	1.86983
1943.62	-0.0309629
1943.87	-0.0264997
1944.12	-0.978154
1944.36	0.934958
1944.61	-2.88191
1944.86	-2.87892
1945.1	-0.964618
1945.35	-1.91731
1945.6	-0.0025444
1945.85	0.956168
1946.09	-0.954512
1946.34	0.00308704
1946.59	1.91611
1946.83	-0.953865
1947.08	0.00137329
1947.33	1.91361
1947.58	-1.91115
1947.82	0.957701
1948.07	-0.955335
1948.32	0.00149918
1948.57	-2.865
1948.81	-2.8625
1949.06	-0.946392
1949.31	0.0140991
1949.55	1.93255
1949.8	0.0238771
1950.05	0.988593
1950.3	-0.922397
1950.54	1.00049
1950.79	0.0477228
1951.04	0.0534458
1951.28	1.97795
1951.53	1.02161
1951.78	0.0640526
1952.02	0.0666265
1952.27	0.0668659
1952.52	1.0298
1952.76	0.0729952
1953.01	1.03124
1953.26	0.0658817
1953.5	0.0578117
1953.75	0.0501642
1954	1.0017
1954.25	0.0368919
1954.49	-0.923435
1954.74	-0.923754
1954.98	0.993939
1955.23	1.95629
1955.48	-0.912946
1955.72	0.055356
1955.97	2.93962
1956.22	1.98536
1956.47	1.98888
1956.71	-1.84874
1956.96	-0.88518
1957.21	0.0785122
1957.45	1.04195
1957.7	1.04397
1957.95	-0.876766
1958.19	2.00793
1958.44	0.0850792
1958.69	0.0829687
1958.93	2.96436
1959.18	-0.879301
1959.43	-1.84139
1959.67	1.03874
1959.92	-1.84435
1960.17	1.03478
1960.41	0.0723391
1960.66	-0.889665
1960.9	0.0684452
1961.15	-0.892372
1961.4	-0.891762
1961.64	0.0690956
1961.89	1.02985
1962.14	-1.84853
1962.38	1.03199
1962.63	1.03302
1962.88	1.99394
1963.12	0.074975
1963.37	1.9961
1963.62	1.03823
1963.86	0.0801592
1964.11	1.04085
1964.36	-1.84045
1964.6	1.04078
1964.85	0.0805311
1965.09	1.04133
1965.34	1.04309
1965.59	1.04625
1965.83	0.0893507
1966.08	-0.867941
1966.33	-0.865346
1966.57	-0.863058
1966.82	-0.862844
1967.06	-1.8236
1967.31	-0.860854
1967.56	2.02423
1967.8	-1.82015
1968.05	0.103005
1968.3	0.102315
1968.54	1.06168
1968.79	-0.863246
1969.03	1.05453
1969.28	-0.870434
1969.53	-0.873468
1969.77	1.04397
1970.02	1.04216
1970.26	-0.878918
1970.51	-0.880529
1970.76	-0.881578
1971	3.91369
1971.25	-0.882947
1971.49	-0.881886
1971.74	-1.83935
1971.99	0.0805578
1972.23	1.04042
1972.48	0.0805235
1972.72	-0.880274
1972.97	0.076396
1973.22	1.03294
1973.46	1.99
1973.71	-0.886558
1973.95	0.0718594
1974.2	1.03085
1974.45	-1.84373
1974.69	-0.88371
1974.94	0.0771446
1975.18	-0.879109
1975.43	2.00026
1975.68	0.0842867
1975.92	2.00421
1976.17	-0.872309
1976.41	0.0876141
1976.66	0.0878181
1976.9	-0.87167
1977.15	0.0865879
1977.4	-1.83283
1977.64	1.04211
1977.89	1.99921
1978.13	-0.877666
1978.38	0.0804529
1978.63	-2.79457
1978.87	0.0818043
1979.12	-1.8345
1979.36	0.0835447
1979.61	-1.8327
1979.85	2.00099
1980.1	0.082181
1980.34	1.03853
1980.59	1.0376
1980.84	1.03631
1981.08	0.0772133
1981.33	1.03459
1981.57	0.0767965
1981.82	1.99234
1982.06	0.0755911
1982.31	1.0312
1982.55	1.9858
1982.8	-1.84602
1983.05	0.0652113
1983.29	1.02083
1983.54	-0.892751
1983.78	1.97608
1984.03	2.93144
1984.27	1.97425
1984.52	1.9725
1984.76	-0.898572
1985.01	-0.900002
1985.25	-0.899529
1985.5	1.01346
1985.75	1.01595
1985.99	-1.84931
1986.24	1.97739
1986.48	1.97772
1986.73	1.02282
1986.97	-0.890495
1987.22	1.01816
1987.46	-0.897187
1987.71	-1.85655
1987.95	2.91299
1988.2	0.994268
1988.44	-4.73664
1988.69	1.92904
1988.93	-0.91752
1989.18	0.0409956
1989.42	-0.877978
1989.67	-0.0037384
1989.91	-2.77243
1990.16	2.79228
1990.41	-0.914804
1990.65	-0.796706
1990.89	1.68267
1991.14	-0.0689735
1991.39	-0.993846
1991.63	0.994313
1991.88	-1.50069
1992.12	-2.42328
1992.37	2.32469
1992.61	0.684275
1992.86	0.662573
1993.1	0.811034
1993.35	2.15268
1993.59	-0.741715
1993.84	-1.08937
1994.08	-0.77745
1994.33	0.678497
1994.57	0.21621
1994.82	-1.17605
1995.06	-0.680102
1995.31	1.36427
1995.55	-0.927137
1995.8	-1.44594
1996.04	0.0197153
1996.29	1.19144
1996.53	-0.00533962
1996.78	-1.52018
1997.02	-0.332139
1997.26	0.535068
1997.51	-0.59798
1997.76	0.865388
1998	-0.185355
1998.24	1.31697
1998.49	0.100743
1998.73	0.314472
1998.98	1.31357
1999.22	0.128535
1999.47	-0.645184
1999.71	0.906419
1999.96	-0.584424
2000.2	0.3313
2000.45	0.286939
2000.69	-0.47899
2000.94	-0.594443
2001.18	0.481244
2001.43	-0.588889
2001.67	0.80847
2001.92	0.39503
2002.16	0.0952234
2002.4	1.18607
2002.65	0.626599
2002.89	0.519976
2003.14	0.272138
2003.38	0.644621
2003.63	0.00594521
2003.87	0.227306
2004.12	0.769853
2004.36	1.94939
2004.6	0.698763
2004.85	-1.34013
2005.1	0.49528
2005.34	0.619276
2005.58	1.46858
2005.83	0.453811
2006.07	0.207549
2006.32	-1.20811
2006.56	-0.826568
2006.81	0.752973
2007.05	0.284845
2007.3	-0.583795
2007.54	-1.18132
2007.78	0.111576
2008.03	2.08539
2008.27	0.836335
2008.52	-0.215626
2008.76	0.427451
2009	-1.30139
2009.25	-1.85901
2009.49	0.278982
2009.74	-0.679367
2009.98	0.659657
2010.23	-0.196335
2010.47	-1.32117
2010.72	0.594455
2010.96	0.200007
2011.2	2.22556
2011.45	-3.53776
2011.69	-0.21409
2011.94	-2.72005
2012.18	-0.0998135
2012.42	-0.0771961
2012.67	-0.0804081
2012.92	-1.96843
2013.16	-1.03057
2013.41	-1.0343
2013.66	1.77974
2013.91	-0.105599
2014.15	-1.98941
2014.4	2.70163
2014.65	-1.98942
2014.9	0.828586
2015.14	-0.106652
2015.39	-1.04295
2015.64	-1.04247
2015.88	2.71393
2016.13	0.849926
2016.38	-0.086257
2016.63	-2.9056
2016.87	-3.846
2017.12	-0.089324
2017.37	-1.97105
2017.61	1.78092
2017.86	-1.97875
2018.11	0.832
2018.35	1.76538
2018.6	-1.9897
2018.85	-1.05628
2019.1	1.75212
2019.34	1.75098
2019.59	-0.123078
2019.84	-0.122493
2020.08	-1.0588
2020.33	0.814544
2020.58	-1.05724
2020.82	-1.05545
2021.07	-0.117748
2021.32	-1.99067
2021.57	0.818798
2021.81	0.81771
2022.06	0.815891
2022.31	-1.99479
2022.55	-0.125698
2022.8	-0.127997
2023.05	-1.06542
2023.29	1.73802
2023.54	-0.134397
2023.79	-1.07102
2024.03	-0.139487
2024.28	-1.07755
2024.53	-2.94864
2024.77	-2.01774
2025.02	-0.153909
2025.27	-2.0228
2025.51	0.772082
2025.76	0.773119
2026.01	-0.154155
2026.25	0.788365
2026.5	-0.134039
2026.75	0.813524
2026.99	0.823051
2027.24	1.75931
2027.49	-0.118649
2027.73	-0.129825
2027.98	-2.02595
2028.23	-1.07128
2028.47	1.78715
2028.72	-0.10326
2028.97	0.842965
2029.21	-1.98266
2029.46	-0.127515
2029.71	4.52071
2029.95	1.72213
2030.2	1.70857
2030.45	-1.07835
2030.69	0.79783
2030.94	-1.06935
2031.19	-1.0684
2031.43	-0.1347
2031.68	-1.06327
2031.92	-1.05824
2032.17	1.74933
2032.42	-1.04734
2032.66	1.76076
2032.91	1.76469
2033.16	-2.90514
2033.4	0.840189
2033.65	-0.101528
2033.89	-1.04239
2034.14	1.74361
2034.39	-0.127908
2034.64	-1.05393
2034.88	-4.78317
2035.13	0.826483
2035.37	0.838538
2035.62	-1.95823
2035.87	-0.0849247
2036.11	0.842518
2036.36	-2.89674
2036.6	-0.0872736
2036.85	-0.0864363
2037.1	-1.0211
2037.34	-0.0864449
2037.59	0.84763
2037.84	0.846474
2038.08	1.77964
2038.33	-1.02515
2038.57	1.77645
2038.82	0.840613
2039.07	-1.96281
2039.31	0.836882
2039.56	-0.0998325
2039.8	-1.03595
2040.05	1.76049
2040.3	1.75756
2040.54	-1.04247
2040.79	0.820854
2041.03	0.82025
2041.28	0.820374
2041.53	-0.112617
2041.77	-0.113528
2042.02	-1.04691
2042.26	-0.115951
2042.51	-1.04673
2042.76	3.6138
2043	0.822878
2043.25	-2.89998
2043.49	-0.0962353
2043.74	-1.02539
2043.99	0.841094
2044.23	-1.95926
2044.48	-1.96329
2044.72	-1.04027
2044.97	-0.0975199
2045.22	-1.95385
2045.46	1.79616
2045.71	1.82302
2045.95	0.883131
2046.2	0.868704
2046.44	2.72525
2046.69	-0.075695
2046.94	1.78868
2047.18	-0.0866356
2047.43	-0.0902853
2047.67	0.842942
2047.92	-1.01993
2048.16	-0.0858965
2048.41	1.7812
2048.66	1.786
2048.9	-0.0756092
2049.15	-1.00405
2049.39	-0.0651808
2049.64	1.80722
2049.88	-0.0555201
2050.13	0.882087
2050.37	-0.984513
2050.62	-0.0499573
2050.87	-1.91961
2051.11	0.879319
2051.36	-1.92184
2051.6	1.81425
2051.85	0.883336
2052.09	-0.0487719
2052.34	1.82168
2052.58	1.825
2052.83	-1.90858
2053.08	0.899013
2053.32	0.906656
2053.57	-0.959638
2053.81	-1.89226
2054.06	0.915565
2054.3	-0.954639
2054.55	0.916418
2054.79	-1.88948
2055.04	-0.95632
2055.29	2.78293
2055.53	-0.0218315
2055.78	-0.0221796
2056.02	-0.0228624
2056.27	-0.0230064
2056.51	-0.0223475
2056.76	-0.0208597
2057	-0.0189896
2057.25	-0.951427
2057.49	-0.948496
2057.74	1.8597
2057.98	1.86454
2058.23	-0.00232315
2058.47	0.00151253
2058.72	-1.86729
2058.96	0.942738
2059.21	0.00817585
2059.45	0.946074
2059.7	-0.927135
2059.95	0.00797176
2060.19	0.00664425
2060.44	-0.926899
2060.68	0.94808
2060.93	-0.92176
2061.17	-0.920251
2061.42	1.88972
2061.66	-0.917853
2061.91	0.0202332
2062.15	0.0225096
2062.4	-1.84798
2062.64	-0.908229
2062.89	-1.84206
2063.13	1.90877
2063.38	-1.83732
2063.62	0.0391493
2063.87	-0.896237
2064.11	-0.894032
2064.36	0.04638
2064.6	0.0500374
2064.85	0.0551634
2065.09	2.87509
2065.34	-0.874399
2065.58	-0.870865
2065.83	-1.80708
2066.07	-1.8055
2066.32	1.01358
2066.56	-2.74056
2066.81	2.89714
2067.05	1.02116
2067.29	0.0847893
2067.54	-2.73157
2067.78	-0.849816
2068.03	-2.72794
2068.27	-1.78572
2068.52	0.0960655
2068.76	0.0951052
2069.01	0.0923481
2069.25	-0.851887
2069.5	0.0849514
2069.74	-3.67017
2069.99	-0.847161
2070.23	1.98032
2070.48	1.04871
2070.72	1.99096
2070.97	-2.71433
2071.21	0.119022
2071.46	3.89574
2071.7	-1.75428
2071.94	1.07043
2072.19	-0.81253
2072.43	1.07038
2072.68	3.89542
2072.92	0.129579
2073.17	-0.810815
2073.41	2.01513
2073.66	-1.74964
2073.9	0.135774
2074.15	2.02275
2074.39	-2.68306
2074.64	1.09115
2074.88	1.09829
2075.13	-0.779934
2075.37	2.05707
2075.61	0.173345
2075.86	1.11884
2076.1	1.12022
2076.35	-0.768174
2076.59	-0.769881
2076.84	1.11519
2077.08	-0.776908
2077.32	-1.72135
2077.57	-0.776483
2077.81	0.170333
2078.06	0.172498
2078.3	1.11793
2078.55	-3.59742
2078.79	2.06817
2079.03	-1.70046
2079.28	0.191919
2079.52	0.195095
2079.77	-0.746737
2080.01	0.200897
2080.26	0.202171
2080.5	1.14633
2080.74	1.1459
2080.99	0.201262
2081.23	0.201997
2081.48	1.14661
2081.72	-3.57575
2081.97	2.0953
2082.21	1.15202
2082.45	1.15312
2082.7	0.208633
2082.94	0.208784
2083.19	1.15376
2083.43	1.15438
2083.67	-0.734521
2083.92	1.15586
2084.16	0.211748
2084.41	0.212891
2084.65	1.1588
2084.89	0.214321
2085.14	-0.729856
2085.38	0.21625
2085.63	0.220263
2085.87	-0.720229
2086.12	2.12152
2086.36	1.17783
2086.6	-2.60415
2086.85	-2.60172
2087.09	1.18578
2087.34	-0.706238
2087.58	1.18741
2087.82	2.1348
2088.07	-0.703254
2088.31	-2.59496
2088.56	1.19248
2088.8	-0.698305
2089.04	0.251433
2089.29	0.255455
2089.53	-1.6365
2089.77	-0.687996
2090.02	2.1556
2090.26	1.21019
2090.51	1.2124
2090.75	0.266995
2090.99	1.21687
2091.24	1.22091
2091.48	2.17414
2091.72	2.17976
2091.97	-0.661265
2092.21	-0.656228
2092.45	0.297582
2092.7	-0.648056
2092.94	0.305861
2093.19	1.26015
2093.43	1.2639
2093.67	1.26731
2093.92	1.26911
2094.16	0.31903
2094.41	-0.631704
2094.65	0.318601
2094.89	2.21803
2095.14	1.26536
2095.38	-0.636736
2095.62	0.312313
2095.87	1.26172
2096.11	1.26161
2096.35	2.21153
2096.6	-0.639355
2096.84	0.308317
2097.08	0.305941
2097.33	0.305078
2097.57	1.25408
2097.81	0.304726
2098.06	-2.54432
2098.3	1.25262
2098.55	0.303703
2098.79	-1.59476
2099.03	-1.59488
2099.28	-1.59468
2099.52	1.25286
2099.76	3.1518
2100	-2.54137
2100.25	0.307312
2100.49	-0.638073
2100.74	-1.58454
2100.98	-0.632729
2101.22	-0.631328
2101.47	-0.630782
2101.71	1.26881
2101.95	2.21928
2102.2	-0.630296
2102.44	0.317843
2102.68	-2.53306
2102.92	0.313746
2103.17	-0.635345
2103.41	3.16105
2103.65	0.313909
2103.9	-1.58334
2104.14	1.26729
2104.39	0.320365
2104.63	-0.62708
2104.87	-0.624541
2105.11	1.27898
2105.36	1.28255
2105.6	0.334104
2105.84	1.28654
2106.09	3.18906
2106.33	-0.612609
2106.57	-0.611119
2106.82	2.24247
2107.06	-0.610858
2107.3	-2.51396
2107.54	-0.615771
2107.79	0.330947
2108.03	0.327543
2108.27	0.324575
2108.52	2.22245
2108.76	-3.47388
2109	1.27706
2109.25	0.331355
2109.49	1.28183
2109.73	1.28217
2109.97	-2.51747
2110.22	-0.617265
2110.46	-0.616957
2110.7	0.333219
2110.95	0.332732
2111.19	1.28102
2111.43	2.22922
2111.68	0.32923
2111.92	-0.62041
2112.16	-0.619117
2112.4	1.28225
2112.65	-0.615733
2112.89	-1.56278
2113.13	2.2417
2113.38	-0.607749
2113.62	-1.55836
2113.86	0.341432
2114.1	0.341184
2114.35	0.341902
2114.59	0.342569
2114.83	-0.60817
2115.07	0.341219
2115.32	-0.609936
2115.56	1.28947
2115.8	1.287
2116.04	-1.56517
2116.29	0.33302
2116.53	-2.51648
2116.77	1.28158
2117.02	2.23173
2117.26	-0.617885
2117.5	-1.56915
2117.74	-0.621746
2117.99	2.22227
2118.23	1.26902
2118.47	1.26555
2118.71	-0.634115
2118.96	1.25949
2119.2	2.20445
2119.44	-1.58936
2119.68	3.1469
2119.93	0.303245
2120.17	1.25112
2120.41	-0.642042
2120.65	-0.640559
2120.9	0.310119
2121.14	2.21005
2121.38	1.26526
2121.62	2.21712
2121.86	1.27135
2122.11	1.27378
2122.35	1.2759
2122.59	-0.620778
2122.84	0.329752
2123.08	0.330475
2123.32	0.329637
2123.56	2.22666
2123.81	1.27508
2124.05	2.22036
2124.29	0.317418
2124.53	2.20691
2124.77	2.1997
2125.02	4.08863
2125.26	-0.651754
2125.5	1.23778
2125.74	2.1802
2125.98	2.1768
2126.23	0.281365
2126.47	2.17003
2126.71	2.16636
2126.95	1.21928
2127.2	1.21841
2127.44	2.16308
2127.68	-0.674716
2127.92	0.269458
2128.16	0.269387
2128.41	1.21473
2128.65	1.21421
2128.89	0.267753
2129.13	-0.678476
2129.38	3.10109
2129.62	1.21016
2129.86	-0.680752
2130.1	2.1529
2130.34	-0.683158
2130.58	0.2599
2130.83	0.257752
2131.07	2.14428
2131.31	2.14181
2131.55	1.19582
2131.79	1.1942
2132.04	2.13521
2132.28	0.244425
2132.52	1.18638
2132.76	3.07298
2133	1.18618
2133.25	2.13031
2133.49	0.242976
2133.73	1.18691
2133.97	0.243669
2134.21	3.07438
2134.46	1.18622
2134.7	1.18559
2134.94	2.12837
2135.18	2.12672
2135.42	0.237112
2135.67	0.232999
2135.91	2.11406
2136.15	1.16838
2136.39	1.16827
2136.63	1.16895
2136.87	-0.716694
2137.12	2.11283
2137.36	1.17263
2137.6	1.17241
2137.84	-0.717592
2138.08	3.04946
2138.32	-1.66261
2138.57	0.227064
2138.81	1.17346
2139.05	0.225233
2139.29	0.218286
2139.53	3.04242
2139.77	-0.729138
2140.02	2.09493
2140.26	1.15091
2140.5	1.14933
2140.74	-1.67752
2140.98	-1.67796
2141.22	0.203168
2141.46	1.14093
2141.71	2.08021
2141.95	2.07968
2142.19	1.14034
2142.43	2.08414
2142.67	-1.67456
2142.91	1.14998
2143.15	2.05784
2143.4	-0.770111
2143.64	-0.767192
2143.88	1.11652
2144.12	1.12131
2144.36	-0.757121
2144.6	2.0576
2144.85	2.05623
2145.09	0.176383
2145.33	1.1156
2145.57	-0.76638
2145.81	2.05229
2146.05	0.170525
2146.29	0.168932
2146.53	0.167109
2146.78	2.98393
2147.02	1.10198
2147.26	1.09963
2147.5	0.158174
2147.74	0.156076
2147.98	2.03226
2148.22	1.09069
2148.46	-0.78985
2148.7	1.08452
2148.95	6.71153
2149.19	0.136074
2149.43	-0.805847
2149.67	0.127751
2149.91	-0.813207
2150.15	1.05934
2150.39	-1.75357
2150.63	1.05869
2150.88	0.123025
2151.12	0.123872
2151.36	1.06324
2151.6	1.06362
2151.84	-0.810466
2152.08	0.125059
2152.32	-1.7529
2152.56	0.119445
2152.8	-0.821061
2153.05	1.98911
2153.29	-0.824482
2153.53	-0.827149
2153.77	0.106146
2154.01	0.100995
2154.25	1.96667
2154.49	1.02429
2154.73	1.95193
2154.97	1.01123
2155.21	1.00604
2155.45	0.0669851
2155.7	0.997787
2155.94	-0.873037
2156.18	1.92815
2156.42	-0.875412
2156.66	-1.81035
2156.9	-0.876122
2157.14	0.993449
2157.38	-0.873593
2157.62	0.99735
2157.86	0.99737
2158.1	0.0618868
2158.34	1.93
2158.59	3.7972
2158.83	0.99085
2159.07	-1.81532
2159.31	0.984161
2159.55	1.91376
2159.79	0.975277
2160.03	1.90472
2160.27	0.0340986
2160.51	-0.901629
2160.75	0.0300703
2160.99	0.0280943
2161.23	0.0258131
2161.47	-0.908525
2161.72	2.82224
2161.95	0.955647
2162.2	0.954658
2162.44	-1.84576
2162.68	0.949914
2162.92	0.947433
2163.16	-2.78503
2163.4	0.0102301
2163.64	-0.92459
2163.88	0.936483
2164.12	-0.000379562
2164.36	1.85974
2164.6	-0.00466824
2164.84	-1.8675
2165.08	-0.00454712
2165.32	-1.86897
2165.56	0.925864
2165.8	0.923604
2166.04	0.920985
2166.28	0.918017
2166.53	-0.948467
2166.76	0.911011
2167.01	-0.0240936
2167.25	-1.89048
2167.49	-0.0361042
2167.73	-0.0433531
2167.97	-0.047122
2168.21	1.81069
2168.45	0.880719
2168.69	-0.0482903
2168.93	1.81339
2169.17	-0.0439253
2169.41	-0.0403271
2169.65	2.75673
2169.89	-0.0336418
2170.13	1.82941
2170.37	-0.966021
2170.61	-0.0381899
2170.85	-0.971696
2171.09	0.884127
2171.33	1.80354
2171.57	-2.85227
2171.81	-0.996775
2172.05	-1.00006
2172.29	-1.93204
2172.53	-1.00454
2172.77	-1.00582
2173.01	0.851072
2173.25	0.850867
2173.49	-0.0776854
2173.73	-2.86542
2173.97	-1.93653
2174.21	1.78023
2174.45	-1.93856
2174.69	-1.01043
2174.93	0.846381
2175.17	-1.94353
2175.41	-1.94506
2175.65	-1.01756
2175.89	-0.0904675
2176.13	0.835217
2176.37	0.832983
2176.61	-1.02604
2176.85	-1.02686
2177.09	-0.0987215
2177.33	0.828671
2177.57	-1.02972
2177.81	0.826177
2178.05	0.821055
2178.29	1.74504
2178.53	-0.113633
2178.77	-0.114131
2179.01	0.813412
2179.25	0.81243
2179.49	-1.04583
2179.73	-1.97558
2179.97	1.73691
2180.21	0.806317
2180.45	-1.05266
2180.69	-0.125823
2180.93	-0.127761
2181.17	-1.05873
2181.41	-0.13354
2181.65	-0.135266
2181.89	0.789599
2182.13	0.78686
2182.37	2.64007
2182.61	-1.07465
2182.85	-0.151109
2183.09	0.770576
2183.33	3.54672
2183.57	-0.164182
2183.81	0.758926
2184.05	-0.169698
2184.28	-1.09729
2184.53	1.68269
2184.76	-0.170826
2185	-0.171148
2185.24	0.756089
2185.48	-0.169964
2185.72	-2.02311
2185.96	2.61439
2186.2	-0.165301
2186.44	-2.94632
2186.68	-0.159766
2186.92	1.69996
2187.16	-0.155136
2187.4	0.773565
2187.64	-0.157823
2187.88	-0.16146
2188.12	0.763022
2188.36	0.758601
2188.6	0.753852
2188.84	-0.179161
2189.07	-2.03966
2189.31	-0.190381
2189.55	2.5875
2189.79	-0.195866
2190.03	1.65721
2190.27	-1.12446
2190.51	-0.197145
2190.75	-2.05301
2190.99	-0.199327
2191.23	-1.12689
2191.47	-1.1271
2191.71	2.58247
2191.95	2.58248
2192.19	-2.05562
2192.42	-2.05526
2192.67	-1.12649
2192.9	0.730268
2193.14	1.6603
2193.38	0.736131
2193.62	-2.04531
2193.86	-0.183661
2194.1	0.747291
2194.34	0.745787
2194.58	2.60147
2194.82	-0.189819
2195.06	-2.0519
2195.3	-0.197498
2195.53	-0.202637
2195.77	0.719878
2196.01	4.42659
2196.25	0.708394
2196.49	1.6319
2196.73	0.700166
2196.97	-0.231014
2197.21	-0.232859
2197.45	0.693793
2197.69	0.693552
2197.92	1.62315
2198.16	0.697615
2198.4	-1.1564
2198.64	-1.15355
2198.88	-1.15113
2199.12	3.49775
2199.36	0.713359
2199.6	2.57843
2199.84	-1.13629
2200.07	-0.20069
2200.31	5.39176
2200.55	-0.193645
2200.79	1.67209
2201.03	-0.197067
2201.27	-0.211407
2201.51	0.689827
2201.75	-1.19018
2201.99	1.59511
2202.23	1.6206
2202.46	1.63442
2202.7	-1.16174
2202.94	-2.09567
2203.18	-1.1659
2203.42	0.753333
2203.66	2.59595
2203.9	-0.205524
2204.14	0.729969
2204.37	1.65131
2204.61	-1.15792
2204.85	1.62161
2205.09	0.680357
2205.33	0.676327
2205.57	0.6745
2205.8	0.676229
2206.05	1.60696
2206.28	-1.19052
2206.52	-0.261801
2206.76	0.668421
2207	0.669506
2207.24	-2.11961
2207.48	0.672548
2207.71	0.674139
2207.95	-0.255199
2208.19	1.60775
2208.43	-1.18483
2208.67	-0.253758
2208.91	-1.18566
2209.15	-0.255701
2209.38	-0.25771
2209.62	-0.259059
2209.86	1.60399
2210.1	-1.19012
2210.34	0.673809
2210.58	3.47029
2210.81	2.53934
2211.05	0.676103
2211.29	-0.254871
2211.53	-1.18586
2211.77	-0.252817
2212.01	-0.252894
2212.24	-1.18814
2212.48	0.67451
2212.72	0.671393
2212.96	0.668013
2213.2	0.663263
2213.44	1.59442
2213.67	0.663191
2213.91	1.59965
2214.15	-1.19462
2214.39	-0.261383
2214.63	0.67177
2214.87	-1.19596
2215.1	1.60394
2215.34	1.60281
2215.58	-1.19965
2215.82	-1.20139
2216.06	-0.269677
2216.29	1.59538
2216.53	0.659512
2216.77	1.59138
2217.01	-0.276926
2217.25	0.655817
2217.49	1.58801
2217.72	0.652465
2217.96	-0.282321
2218.2	0.651111
2218.44	-0.282417
2218.68	-1.21576
2218.91	2.52209
2219.15	1.58826
2219.39	-0.280646
2219.63	0.654009
2219.87	1.58694
2220.1	1.58454
2220.34	-1.22119
2220.58	0.645029
2220.82	-0.293968
2221.06	-0.29936
2221.29	-1.23786
2221.53	-2.17557
2221.77	0.621671
2222.01	2.48636
2222.25	1.55219
2222.48	0.619059
2222.72	-0.314129
2222.96	1.55441
2223.2	-0.312029
2223.43	-0.309715
2223.67	1.5624
2223.91	2.50038
2224.15	-1.23811
2224.39	-1.23685
2224.62	-2.17141
2224.86	0.637626
2225.1	0.640144
2225.34	0.642049
2225.58	0.643473
2225.81	0.645059
2226.05	0.645924
2226.29	-1.22721
2226.53	-0.288785
2226.76	-2.16325
2227	1.5874
2227.24	2.52476
2227.48	1.58526
2227.72	0.644861
2227.95	-3.10837
2228.19	1.57716
2228.43	-0.300359
2228.67	2.50976
2228.9	-0.30444
2229.14	0.633481
2229.38	1.57346
2229.62	4.39006
2229.85	0.638864
2230.09	-0.298447
2230.33	-2.17457
2230.57	-1.23478
2230.8	-1.23343
2231.04	-2.17124
2231.28	1.58766
2231.52	0.649457
2231.75	-1.22903
2231.99	-0.287994
2232.23	-3.10786
2232.47	-2.16692
2232.7	-1.22569
2232.94	0.656712
2233.18	-1.22412
2233.42	-0.282616
2233.65	-0.28257
2233.89	-1.22577
2234.13	1.59518
2234.37	-3.11357
2234.6	0.646728
2234.84	0.640347
2235.08	0.634741
2235.31	-0.307483
2235.55	-0.308453
2235.79	1.57163
2236.03	-2.19108
2236.26	1.57011
2236.5	1.56937
2236.74	0.630272
2236.97	-0.309116
2237.21	-0.305742
2237.45	-3.12691
2237.69	0.644354
2237.92	0.64713
2238.16	1.59216
2238.4	-1.2336
2238.64	-1.23059
2238.87	0.656389
2239.11	-1.23295
2239.35	2.53684
2239.58	1.58827
2239.82	-0.303211
2240.06	0.636277
2240.29	2.52483
2240.53	-0.298676
2240.77	1.5877
2241.01	0.643648
2241.24	-2.18764
2241.48	-1.24463
2241.72	1.58622
2241.96	0.64257
2242.19	0.642851
2242.43	-2.19012
2242.67	-1.2481
2242.9	-1.25099
2243.14	1.57683
2243.38	0.630255
2243.61	1.57197
2243.85	-1.26032
2244.09	-0.316271
2244.32	-2.2022
2244.56	-0.310024
2244.8	-0.306231
2245.03	-0.304156
2245.27	-0.302932
2245.51	0.64401
2245.75	0.645612
2245.98	-1.245
2246.22	1.59298
2246.46	1.59366
2246.69	-0.297839
2246.93	-1.24418
2247.17	-0.298454
2247.4	-0.299961
2247.64	-0.302057
2247.88	1.5884
2248.11	-2.19926
2248.35	-2.20138
2248.59	-0.311026
2248.82	0.633132
2249.06	0.63365
2249.3	-1.25847
2249.53	0.633156
2249.77	-1.26261
2250.01	0.625991
2250.24	-2.2165
2250.48	1.56254
2250.72	-1.27881
2250.95	-0.336592
2251.19	0.606452
2251.43	0.605445
2251.66	1.55111
2251.9	1.5521
2252.14	-1.28389
2252.37	-0.335225
2252.61	-0.329614
2252.85	-3.16636
2253.08	0.625094
2253.32	-0.32022
2253.55	0.628901
2253.79	-0.317616
2254.03	0.631233
2254.26	-2.21411
2254.5	-0.320175
2254.74	1.57503
2254.97	-1.27044
2255.21	-1.27141
2255.45	0.62434
2255.68	1.57361
2255.92	0.626744
2256.16	1.57682
2256.39	1.57812
2256.63	-1.26779
2256.87	-0.317712
2257.1	0.632583
2257.34	-0.316472
2257.57	-2.21604
2257.81	-0.317494
2258.05	0.631813
2258.28	0.631919
2258.52	-1.26722
2258.76	-2.21663
2258.99	-1.26642
2259.23	0.63399
2259.47	2.5352
2259.7	1.58528
2259.94	-0.315581
2260.17	-0.315488
2260.41	-1.26556
2260.64	-0.311856
2260.88	-1.2612
2261.12	-1.26149
2261.35	-0.310466
2261.59	3.49583
2261.83	-2.21391
2262.06	-0.309884
2262.3	-1.26029
2262.53	-0.306368
2262.77	-1.25643
2263.01	-0.300919
2263.24	0.655827
2263.48	1.61397
2263.71	1.61888
2263.95	-0.285107
2264.19	1.62697
2264.42	0.675012
2264.66	-0.277914
2264.89	0.678641
2265.13	-1.23208
2265.37	0.677826
2265.6	-1.23461
2265.84	-3.14834
2266.07	-0.287667
2266.31	-0.29218
2266.55	0.657932
2266.78	0.654277
2267.02	-3.16532
2267.25	-2.21422
2267.49	0.643272
2267.73	-1.26754
2267.96	2.54433
2268.2	-1.27045
2268.43	-2.22355
2268.67	-1.26835
2268.91	-2.22012
2269.14	1.59968
2269.38	-2.21527
2269.61	-1.2572
2269.85	3.52259
2270.08	-1.25232
2270.32	1.61531
2270.56	-1.24993
2270.79	1.61964
2271.03	0.664579
2271.26	0.665627
2271.5	-0.288993
2271.73	-0.288349
2271.97	0.667701
2272.2	0.667402
2272.44	-1.24632
2272.68	-0.289676
2272.91	0.667022
2273.15	1.62385
2273.38	0.666782
2273.62	-1.24751
2273.85	2.58064
2274.09	0.666258
2274.33	0.666163
2274.56	0.666165
2274.8	-2.20587
2275.03	-1.24845
2275.27	0.664963
2275.5	-0.291557
2275.74	2.58418
2275.97	1.6295
2276.21	-1.24255
2276.45	-0.282312
2276.68	-1.23888
2276.92	0.682425
2277.15	-1.23158
2277.39	0.692035
2277.62	0.698092
2277.86	-1.22089
2278.09	0.700271
2278.33	-1.22118
2278.56	-0.262
2278.8	1.65721
2279.03	0.693987
2279.27	-0.273612
2279.5	-1.23817
2279.74	-1.24255
2279.98	-1.24648
2280.21	-2.20876
2280.45	-0.293936
2280.68	1.62124
2280.92	-0.298584
2281.15	0.657244
2281.39	2.57532
2281.62	-1.25875
2281.86	1.61847
2282.09	-0.297026
2282.33	1.62386
2282.56	-1.25141
2282.8	0.6707
2283.03	-1.24437
2283.27	-0.278316
2283.5	-0.273273
2283.74	-3.15115
2283.97	3.58329
2284.21	1.66084
2284.44	2.6258
2284.68	-0.257368
2284.91	-0.25694
2285.15	2.63054
2285.38	-1.22202
2285.62	-1.22842
2285.85	-1.22972
2286.09	-0.26756
2286.32	1.65733
2286.56	-1.22307
2286.79	-0.255214
2287.03	3.59872
2287.26	0.709993
2287.5	-0.24905
2287.74	-1.21387
2287.97	0.710059
2288.2	-1.219
2288.44	-1.2217
2288.67	2.62466
2288.91	-1.23176
2289.14	0.687604
2289.38	-2.20471
2289.61	2.60018
2289.85	1.63627
2290.08	-0.286856
2290.32	-1.24871
2290.55	-1.24754
2290.79	-0.283108
2291.02	1.64543
2291.26	0.686429
2291.49	1.65104
2291.73	-0.272012
2291.96	0.692897
2292.2	0.696008
2292.43	1.6623
2292.67	0.701211
2292.9	1.66673
2293.14	1.66811
2293.37	-0.258762
2293.6	0.70361
2293.84	1.66511
2294.07	0.69878
2294.31	1.65871
2294.54	-0.270505
2294.78	0.69022
2295.01	0.687662
2295.25	-1.24064
2295.48	-2.20538
2295.72	-0.282803
2295.95	-0.289824
2296.19	0.670672
2296.42	0.671382
2296.65	0.673028
2296.89	-1.24957
2297.12	-0.2844
2297.36	-1.244
2297.59	0.686888
2297.83	-0.273428
2298.06	-2.1992
2298.3	0.694227
2298.53	1.66192
2298.77	-1.22784
2299	0.703213
2299.23	1.66945
2299.47	1.66867
2299.7	-1.22528
2299.94	1.66761
2300.17	-2.19
2300.41	0.70658
2300.64	1.67325
2300.87	-1.22063
2301.11	0.710521
2301.34	0.710643
2301.58	2.64052
2301.81	2.63881
2302.05	-1.22344
2302.28	1.67205
2302.51	0.706437
2302.75	0.705192
2302.98	0.704621
2303.22	-1.22568
2303.45	-0.259703
2303.69	-1.22294
2303.92	-0.255486
2304.15	-1.21979
2304.39	-2.1841
2304.62	-0.250083
2304.86	0.717615
2305.09	-1.21423
2305.33	0.71898
2305.56	0.720524
2305.79	-1.21057
2306.03	-0.243688
2306.26	-3.14327
2306.5	2.65574
2306.73	-3.14423
2306.97	0.720541
2307.2	-4.11348
2307.43	0.716855
2307.67	-0.250782
2307.9	2.64582
2308.13	-1.21882
2308.37	-0.252598
2308.6	1.68188
2308.84	2.65083
2309.07	1.68782
2309.3	0.725849
2309.54	3.63098
2309.77	1.69803
2310.01	-0.236423
2310.24	-0.23688
2310.47	1.69619
2310.71	2.65982
2310.94	-1.21541
2311.18	0.706829
2311.41	0.701299
2311.64	-1.23387
2311.88	2.62492
2312.11	-0.273392
2312.34	-0.275626
2312.58	-0.276302
2312.81	3.58481
2313.05	-2.20199
2313.28	-0.265911
2313.51	1.67003
2313.75	1.67453
2313.98	-2.18683
2314.21	-0.24897
2314.45	1.69072
2314.68	-1.20891
2314.92	-3.14613
2315.15	-1.21542
2315.39	0.715323
2315.62	-1.22186
2315.85	0.703509
2316.09	-0.267626
2316.32	1.6613
2316.55	-0.27068
2316.79	-1.23585
2317.02	-0.269584
2317.25	-2.19835
2317.49	1.66843
2317.72	-0.267627
2317.95	-1.2366
2318.19	-0.27286
2318.42	-0.275264
2318.66	2.61793
2318.89	3.58028
2319.12	0.683034
2319.35	2.61151
2319.59	0.681337
2319.82	4.54136
2320.06	2.61126
2320.29	3.5774
2320.52	6.47541
2320.76	-0.278754
2320.99	-0.27636
2321.22	0.692186
2321.46	1.66214
2321.69	2.63325
2321.92	2.63768
2322.16	-0.260529
2322.39	3.6057
2322.62	3.60594
2322.86	4.5739
2323.09	0.70736
2323.32	4.57594
2323.56	3.60947
2323.79	3.60868
2324.02	4.5745
2324.26	5.53702
2324.49	3.59778
2324.72	8.4217
2324.96	8.41557
2325.19	9.37647
2325.42	11.3025
2325.66	13.2275
2325.89	19.0118
2326.12	23.8286
2326.36	25.7493
2326.59	41.1716
2326.82	51.7655
2327.06	71.0363
2327.29	96.0845
2327.52	154.863
2327.76	190.53
2327.99	189.57
2328.22	138.489
2328.46	85.459
2328.69	62.3136
2328.92	37.2482
2329.15	24.72
2329.39	19.9023
2329.62	16.0525
2329.85	11.2352
2330.09	12.1957
2330.32	8.34077
2330.55	5.45033
2330.78	5.451
2331.02	2.56374
2331.25	4.49287
2331.48	2.56964
2331.72	2.56603
2331.95	0.635276
2332.18	1.59567
2332.42	2.5559
2332.65	-1.29806
2332.88	2.5505
2333.12	-0.339644
2333.35	0.620979
2333.58	-0.343857
2333.81	0.615499
2334.05	3.4972
2334.28	-0.353687
2334.51	1.56767
2334.74	0.604723
2334.98	1.56502
2335.21	0.603124
2335.44	-1.31988
2335.68	-1.32068
2335.91	1.56229
2336.14	-0.362616
2336.37	0.597612
2336.61	-0.36511
2336.84	1.55642
2337.07	-0.36774
2337.3	0.591811
2337.54	-0.371262
2337.77	1.54977
2338	2.50946
2338.24	2.50818
2338.47	-2.298
2338.7	-0.376004
2338.93	1.54564
2339.17	0.58322
2339.4	1.54244
2339.63	0.578726
2339.86	-0.385421
2340.1	-0.388698
2340.33	1.52843
2340.56	0.562976
2340.79	0.557315
2341.03	-0.408753
2341.26	-1.37322
2341.49	-0.417639
2341.72	-0.420955
2341.96	-0.424109
2342.19	-0.426745
2342.42	0.529914
2342.65	-0.430085
2342.89	-0.431037
2343.12	2.44313
2343.35	0.524243
2343.58	-1.39386
2343.82	-0.435559
2344.05	3.39852
2344.28	-1.39617
2344.51	-0.439547
2344.75	-1.40061
2344.98	0.512851
2345.21	1.46604
2345.44	1.46165
2345.68	0.49968
2345.91	0.497025
2346.14	-1.42034
2346.37	-0.464749
2346.6	1.44774
2346.84	-0.469754
2347.07	0.485851
2347.3	0.484703
2347.53	1.44161
2347.77	1.44194
2348	2.39957
2348.23	2.39822
2348.46	-2.39272
2348.69	-0.481244
2348.93	-1.44532
2349.16	1.41753
2349.39	-0.504337
2349.62	-1.4698
2349.85	0.429319
2350.09	0.409446
2350.32	-2.47782
2350.55	1.34358
2350.78	1.39315
2351.02	-0.500477
2351.25	-1.48062
2351.48	0.409208
2351.71	1.36075
2351.94	-1.50261
2352.18	1.35126
2352.41	-1.52433
2352.64	-0.583477
2352.87	-0.583918
2353.1	-1.5388
2353.34	3.21909
2353.57	-2.49807
2353.8	1.30925
2354.03	0.357551
2354.26	0.359701
2354.5	0.357101
2354.73	-1.5517
2354.96	-0.602353
2355.19	1.29938
2355.42	0.342715
2355.66	0.337994
2355.89	1.28345
2356.12	1.27344
2356.35	1.26448
2356.58	-0.643526
2356.81	0.302488
2357.05	-0.653318
2357.28	1.24329
2357.51	-2.56357
2357.74	-0.666959
2357.97	0.280089
2358.21	-0.67628
2358.44	0.269534
2358.67	1.21555
2358.9	0.262044
2359.13	-0.69235
2359.36	0.252145
2359.6	1.19547
2359.83	-1.6589
2360.06	2.13117
2360.29	-0.722157
2360.52	0.220079
2360.75	-0.735026
2360.99	-1.68975
2361.22	2.0953
2361.45	1.14013
2361.68	0.185018
2361.91	-2.66368
2362.14	0.170886
2362.38	1.11117
2362.61	1.10482
2362.84	-2.68677
2363.07	2.03963
2363.3	-1.75051
2363.53	1.08261
2363.77	0.130703
2364	2.01646
2364.23	1.06428
2364.46	-2.72306
2364.69	0.106787
2364.92	-0.844703
