#Acq. time (s)=	30
#Accumulations=	2
#Range (cm-¹)=	1200...2365
#Windows=	3
#Auto scanning=	Off
#Autofocus=	Off
#Macrospot=	Off
#AutoExposure=	Off
#Spike filter=	Multiple accum.
#Delay time (s)=	2
#Binning=	1
#Readout mode=	Signal
#DeNoise=	Off
#ICS correction=	On
#Dark correction=	Off
#Inst. Process=	Off
#Detector Gain=	Best Dynamic
#Detector ADC=	50 kHz HS
#Detector temperature (°C)=	-60.09
#Instrument=	LabRAM HR Evol
#Detector=	SIN-EM FIVIS
#Objective=	x100_VIS_LWD
#Grating=	1800 (450-850nm)
#ND Filter=	100%
#Laser=	532nm_Edge
#Hole=	49.98
#Temperature=	0
#Range=	Visible
#StageXY=	75x50mm Scan+
#StageZ=	Z motor
#X (µm)=	0
#Y (µm)=	0
#Z (µm)=	58.6
#Full time(mm:ss)=	3:23
#Project=	21_11_22
#Sample=	BU19w
#Site=	
#Title=	BU19w-D-FF2-FI07-V_1800 (450-850nm)_532nm_Edge_100%_x100_VIS_LWD_H50um_30sX2
#Remark=	
#Date=	22.11.2021 13:19
#Acquired=	22.11.2021 13:19:23
#Base:Fit=	16.12.2021 17:39:50
#Base:Fit=	16.12.2021 17:44:18
#Base:Sub=	16.12.2021 17:44:19
1202.84	12.5977
1203.12	14.5488
1203.4	5.77277
1203.67	10.9451
1203.95	5.39817
1204.23	14.8566
1204.51	9.32442
1204.78	4.86901
1205.06	6.842
1205.34	9.8843
1205.62	6.50394
1205.9	5.26643
1206.17	11.5176
1206.45	4.94281
1206.73	14.412
1207.01	8.91323
1207.29	10.8934
1207.56	4.31787
1207.84	8.42808
1208.12	10.4047
1208.39	11.3125
1208.67	9.02306
1208.95	16.3319
1209.23	7.64459
1209.51	11.7577
1209.78	6.28156
1210.06	10.3961
1210.34	5.99448
1210.62	4.79379
1210.89	1.46259
1211.17	7.72402
1211.45	5.47114
1211.72	6.41261
1212	6.28901
1212.28	5.1016
1212.56	3.91509
1212.84	0.600533
1213.11	5.79502
1213.39	3.53588
1213.67	0.212288
1213.94	3.27152
1214.22	-2.16697
1214.5	1.96135
1214.78	2.90179
1215.05	2.78399
1215.33	-3.70199
1215.61	1.49141
1215.89	-2.86235
1216.16	-1.90588
1216.44	1.17248
1216.72	0.00747299
1216.99	2.02217
1217.27	-1.25877
1217.55	-1.35385
1217.83	3.85234
1218.1	-1.54713
1218.38	0.473915
1218.66	-8.10502
1218.93	-2.90471
1219.21	-1.9486
1219.49	2.18193
1219.77	-4.27699
1220.04	-6.49635
1220.32	-6.59667
1220.6	-2.46704
1220.88	0.608055
1221.15	0.51215
1221.43	-1.68994
1221.71	-3.88693
1221.98	-2.91374
1222.26	-8.26848
1222.54	1.1617
1222.81	-2.07304
1223.09	-1.08384
1223.37	-1.15562
1223.64	-2.28418
1223.92	3.97408
1224.2	-4.54543
1224.48	5.91971
1224.75	3.70153
1225.03	-0.607616
1225.31	1.40963
1225.58	-3.95226
1225.86	0.15863
1226.14	2.19256
1226.41	2.23312
1226.69	2.27983
1226.97	6.41483
1227.24	4.20234
1227.52	3.07308
1227.8	9.34439
1228.07	5.05756
1228.35	11.2079
1228.63	8.00898
1228.9	13.213
1229.18	15.2647
1229.46	21.5131
1229.73	16.2118
1230.01	23.5177
1230.29	21.3646
1230.56	29.7218
1230.84	26.5312
1231.12	30.6982
1231.39	32.7658
1231.67	34.8383
1231.95	46.375
1232.22	48.4464
1232.5	49.4685
1232.78	49.4442
1233.05	46.2634
1233.33	46.229
1233.61	55.6462
1233.88	54.5466
1234.16	43.9856
1234.43	44.9754
1234.71	54.3645
1234.99	48.001
1235.26	37.4444
1235.54	33.1901
1235.82	37.3348
1236.09	37.2941
1236.37	26.7731
1236.65	33.0309
1236.92	20.4231
1237.2	21.4464
1237.47	20.3759
1237.75	23.5013
1238.03	24.5329
1238.3	20.3237
1238.58	19.2528
1238.85	15.0308
1239.13	15.006
1239.41	9.75012
1239.68	8.69075
1239.96	7.63427
1240.24	14.967
1240.51	9.71259
1240.79	14.9412
1241.06	7.59534
1241.34	10.7299
1241.62	2.32989
1241.89	10.7015
1242.17	12.7777
1242.45	6.46841
1242.72	1.20719
1243	7.46625
1243.27	3.26394
1243.55	14.7692
1243.83	10.5771
1244.1	14.7599
1244.38	11.6123
1244.65	16.8409
1244.93	4.27578
1245.2	14.7197
1245.48	13.6587
1245.76	20.9765
1246.03	19.9347
1246.31	20.9874
1246.59	25.1705
1246.86	23.0785
1247.14	23.0826
1247.41	27.2578
1247.69	22.0163
1247.96	23.0513
1248.24	25.1336
1248.51	36.6205
1248.79	32.435
1249.07	33.4731
1249.34	37.6439
1249.62	36.5933
1249.89	34.4982
1250.17	40.7546
1250.45	44.93
1250.72	50.1581
1251	34.5289
1251.27	32.4688
1251.55	41.8954
1251.82	42.9625
1252.1	35.6685
1252.38	33.6007
1252.65	36.7496
1252.93	39.8943
1253.2	35.7369
1253.48	35.7599
1253.75	29.5228
1254.03	32.6792
1254.3	36.8729
1254.58	25.3921
1254.86	28.538
1255.13	20.199
1255.41	23.3465
1255.68	24.4055
1255.96	18.1464
1256.23	23.3838
1256.51	23.4153
1256.78	16.1365
1257.06	19.3261
1257.33	18.2887
1257.61	17.2554
1257.88	22.4744
1258.16	19.3528
1258.44	17.2815
1258.71	13.1368
1258.99	12.1697
1259.26	17.4945
1259.54	8.17393
1259.81	12.2877
1260.09	12.2473
1260.36	13.2753
1260.64	14.4083
1260.91	13.4403
1261.19	16.6577
1261.46	14.6445
1261.74	12.5438
1262.01	23.0103
1262.29	21.9963
1262.56	26.2064
1262.84	42.9421
1263.11	37.7497
1263.39	51.3728
1263.66	53.5091
1263.94	52.5163
1264.21	49.437
1264.49	35.9026
1264.76	23.4087
1265.04	17.1884
1265.31	19.345
1265.59	5.79291
1265.86	7.93541
1266.14	5.88646
1266.41	5.93084
1266.69	1.77686
1266.96	8.09079
1267.24	9.16132
1267.51	11.2822
1267.79	-0.205364
1268.06	-0.17379
1268.34	1.95596
1268.61	0.944695
1268.89	-0.0590363
1269.16	-1.05473
1269.44	1.0929
1269.71	1.15135
1269.99	1.20645
1270.26	1.26099
1270.54	5.50834
1270.81	1.37108
1271.09	0.378078
1271.36	3.57622
1271.64	4.67231
1271.91	3.66642
1272.18	2.66185
1272.46	1.66243
1272.74	-2.48175
1273.01	1.7682
1273.28	2.87436
1273.56	-5.46905
1273.83	-3.31552
1274.11	4.08814
1274.38	3.09564
1274.66	3.15437
1274.93	6.36598
1275.21	3.27017
1275.48	-0.878689
1275.76	6.54355
1276.03	3.44455
1276.3	1.39824
1276.58	5.6526
1276.85	4.64641
1277.13	5.7416
1277.4	5.78836
1277.68	1.63518
1277.95	3.7921
1278.23	7.01005
1278.5	10.2347
1278.77	7.13617
1279.05	14.5537
1279.32	15.662
1279.6	10.4582
1279.87	14.7134
1280.15	24.2118
1280.42	26.3046
1280.69	29.4785
1280.97	30.5845
1281.24	48.514
1281.52	61.4269
1281.79	67.8209
1282.07	113.194
1282.34	171.101
1282.61	215.291
1282.89	356.419
1283.16	514.525
1283.44	754.717
1283.71	1024.14
1283.99	1038.92
1284.26	762.028
1284.53	450.379
1284.81	238.795
1285.08	156.731
1285.36	97.8514
1285.63	64.2345
1285.9	47.4576
1286.18	34.8949
1286.45	25.4897
1286.73	26.6109
1287	26.6814
1287.28	24.6439
1287.55	13.1143
1287.82	15.2717
1288.1	18.4846
1288.37	11.1683
1288.64	12.278
1288.92	6.01464
1289.19	9.23119
1289.47	13.5052
1289.74	9.3481
1290.01	7.29526
1290.29	8.40782
1290.56	8.48
1290.84	2.23515
1291.11	5.47453
1291.38	3.43188
1291.66	3.4901
1291.93	10.9278
1292.21	9.93855
1292.48	5.79729
1292.75	4.82534
1293.03	-1.42296
1293.3	0.768505
1293.57	1.8899
1293.85	3.00768
1294.12	4.12015
1294.4	2.05895
1294.67	5.27973
1294.94	-3.12122
1295.22	4.32159
1295.49	4.38386
1295.76	-1.89377
1296.04	-0.784138
1296.31	1.38228
1296.58	2.49156
1296.86	1.49514
1297.13	0.505859
1297.4	0.571152
1297.68	-1.4789
1297.95	0.691738
1298.22	2.86266
1298.5	-1.29865
1298.77	-0.175838
1299.04	-0.109051
1299.32	1.01199
1299.59	3.18679
1299.87	-0.977608
1300.14	4.36235
1300.41	-4.03041
1300.69	-1.86296
1300.96	1.36389
1301.23	0.370056
1301.51	0.431358
1301.78	0.492123
1302.05	0.549519
1302.33	-3.61835
1302.6	-4.61972
1302.87	1.76535
1303.15	-2.40233
1303.42	2.92533
1303.69	-3.34499
1303.97	0.934711
1304.24	-1.10966
1304.51	2.11779
1304.79	-3.09484
1305.06	-0.924507
1305.33	1.24965
1305.6	0.253735
1305.88	2.42638
1306.15	-2.77991
1306.42	1.50685
1306.7	-1.59103
1306.97	1.64052
1307.24	-0.409157
1307.52	2.81617
1307.79	-1.34337
1308.06	0.830414
1308.34	-2.27148
1308.61	-0.0973511
1308.88	3.13378
1309.15	-3.13177
1309.43	3.27022
1309.7	1.22358
1309.97	4.45241
1310.25	-0.77121
1310.52	-5.98929
1310.79	1.45933
1311.06	-2.70398
1311.34	2.63542
1311.61	-1.52317
1311.88	4.87588
1312.16	4.94299
1312.43	-3.43802
1312.7	0.852119
1312.98	-3.30589
1313.25	-1.13255
1313.52	-1.0731
1313.79	-2.06873
1314.07	-3.0642
1314.34	-1.94675
1314.61	3.40038
1314.89	-2.87196
1315.16	0.360794
1315.43	2.53707
1315.7	-2.68288
1315.98	-0.508339
1316.25	-2.56075
1316.52	-0.387459
1316.79	-0.327473
1317.07	2.90508
1317.34	2.96746
1317.61	-0.142277
1317.88	-3.25454
1318.16	2.08017
1318.43	-1.0357
1318.7	0.0699959
1318.97	0.125008
1319.25	1.23125
1319.52	1.28727
1319.79	0.288582
1320.06	0.344757
1320.34	-2.76481
1320.61	0.462914
1320.88	1.57961
1321.16	-2.57636
1321.43	-4.62585
1321.7	4.92554
1321.97	-7.66876
1322.25	-1.27825
1322.52	0.883205
1322.79	-0.125347
1323.06	-2.18952
1323.33	-0.0476418
1323.61	3.15857
1323.88	-3.09757
1324.15	0.127457
1324.42	2.31718
1324.7	-1.82415
1324.97	1.40774
1325.24	-2.73609
1325.51	-2.6645
1325.79	-0.484745
1326.06	2.74492
1326.33	4.90827
1326.6	-2.41295
1326.87	1.86573
1327.15	0.867455
1327.42	0.922577
1327.69	2.03049
1327.96	1.02729
1328.23	3.18512
1328.51	-3.09118
1328.78	-0.938711
1329.05	1.21469
1329.32	-2.94603
1329.6	1.31334
1329.87	3.46448
1330.14	2.45886
1330.41	-0.647484
1330.68	3.6048
1330.96	-1.59951
1331.23	-1.5497
1331.5	3.75052
1331.77	-1.44888
1332.04	3.85028
1332.32	0.753704
1332.59	0.805368
1332.86	6.10209
1333.13	-1.18794
1333.4	0.962234
1333.67	-1.08168
1333.95	0.0207767
1334.22	1.12327
1334.49	4.32216
1334.76	3.32744
1335.03	3.37675
1335.3	5.52026
1335.58	0.334578
1335.85	3.52836
1336.12	0.439449
1336.39	4.68316
1336.66	1.59921
1336.94	-2.5314
1337.21	-0.380125
1337.48	-0.323109
1337.75	0.781618
1338.02	2.93161
1338.29	2.98595
1338.57	3.0394
1338.84	0.997387
1339.11	1.04808
1339.38	4.23704
1339.65	1.14434
1339.93	6.42232
1340.2	3.33393
1340.47	6.52396
1340.74	3.43991
1341.01	4.54016
1341.28	-0.633926
1341.55	5.69587
1341.82	3.65594
1342.1	3.70513
1342.37	5.84331
1342.64	3.79663
1342.91	-1.38193
1343.18	3.88526
1343.45	3.9233
1343.73	1.8785
1344	4.00951
1344.27	6.1388
1344.54	5.13967
1344.81	3.10138
1345.08	10.4467
1345.35	2.15818
1345.63	1.16698
1345.9	1.21541
1346.17	2.3045
1346.44	2.35111
1346.71	6.56369
1346.98	4.52724
1347.25	1.45043
1347.52	3.57891
1347.8	1.54208
1348.07	5.74803
1348.34	0.592964
1348.61	6.87719
1348.88	7.96531
1349.15	5.93614
1349.42	1.83116
1349.69	1.88838
1349.96	5.07005
1350.24	4.08426
1350.51	3.11901
1350.78	4.24548
1351.05	7.39462
1351.32	4.27169
1351.59	6.36367
1351.86	4.33946
1352.13	3.35442
1352.41	-0.760996
1352.68	0.320957
1352.95	4.53444
1353.22	4.58914
1353.49	2.55356
1353.76	5.71608
1354.03	2.64662
1354.3	6.84696
1354.57	6.89168
1354.84	6.93538
1355.11	6.97837
1355.39	5.98305
1355.66	6.02596
1355.93	0.880526
1356.2	8.18427
1356.47	7.19015
1356.74	11.3818
1357.01	7.27372
1357.28	11.4571
1357.55	10.4581
1357.82	6.35436
1358.09	7.43441
1358.36	8.51676
1358.63	8.56277
1358.9	7.572
1359.18	8.6508
1359.45	9.72914
1359.72	11.8431
1359.99	8.78184
1360.26	8.83001
1360.53	8.88177
1360.8	5.82529
1361.07	11.0544
1361.34	10.0646
1361.61	11.1438
1361.88	8.07849
1362.15	9.15372
1362.42	9.19144
1362.69	12.3336
1362.97	14.4398
1363.24	12.4066
1363.51	8.30484
1363.78	11.4422
1364.05	7.33941
1364.32	16.6799
1364.59	14.6531
1364.86	16.7685
1365.13	15.7825
1365.4	13.7615
1365.67	12.7738
1365.94	12.8197
1366.21	14.934
1366.48	13.9462
1366.75	11.9174
1367.02	7.82113
1367.29	16.1296
1367.56	13.0623
1367.83	14.1328
1368.1	13.1354
1368.37	20.3973
1368.64	30.7495
1368.91	52.4436
1369.18	58.6462
1369.45	24.6257
1369.72	16.4059
1369.99	15.4094
1370.26	16.4762
1370.54	10.329
1370.81	12.4275
1371.08	13.4958
1371.34	15.5945
1371.62	15.6327
1371.89	13.6101
1372.16	6.43543
1372.43	15.7473
1372.7	18.8833
1372.97	16.8621
1373.24	13.8141
1373.51	9.72473
1373.78	11.8161
1374.05	16.9916
1374.32	13.9253
1374.59	10.8817
1374.86	19.1639
1375.13	21.2786
1375.4	15.1577
1375.67	14.1884
1375.94	21.4513
1376.21	17.3647
1376.48	17.3976
1376.75	18.461
1377.02	17.4605
1377.29	19.5434
1377.56	21.6039
1377.83	24.7079
1378.09	18.5539
1378.36	25.8001
1378.64	24.7976
1378.91	21.7294
1379.18	28.9355
1379.44	23.8157
1379.71	25.8889
1379.98	24.8802
1380.25	29.0072
1380.52	33.13
1380.79	28.0295
1381.06	30.1079
1381.33	29.1204
1381.6	33.2615
1381.87	32.2818
1382.14	34.3825
1382.41	36.4936
1382.68	34.4915
1382.95	37.6204
1383.22	43.8233
1383.49	49.0078
1383.76	48.0228
1384.03	44.976
1384.3	62.4188
1384.57	76.6327
1384.84	83.6562
1385.11	104.047
1385.38	124.68
1385.65	178.231
1385.92	254.431
1386.19	380.954
1386.45	672.603
1386.72	1238.58
1386.99	2065.7
1387.26	2169.85
1387.53	1312.64
1387.8	610.34
1388.07	330.277
1388.34	200.116
1388.61	128.397
1388.88	95.6106
1389.15	71.0293
1389.42	70.0163
1389.69	56.7219
1389.96	53.6716
1390.23	47.5528
1390.49	40.4125
1390.76	32.2507
1391.03	37.3945
1391.3	28.2118
1391.57	36.4256
1391.84	30.315
1392.11	27.2806
1392.38	28.3428
1392.65	26.3323
1392.92	24.3182
1393.19	27.418
1393.46	21.3031
1393.73	21.3282
1393.99	25.4458
1394.26	23.421
1394.53	24.4653
1394.8	24.49
1395.07	26.5643
1395.34	23.5279
1395.61	22.5389
1395.88	20.5251
1396.15	21.5794
1396.42	21.6147
1396.68	23.6952
1396.95	18.6105
1397.22	20.6857
1397.49	17.6483
1397.76	15.638
1398.03	22.8388
1398.3	21.8417
1398.57	16.7534
1398.84	14.7328
1399.11	23.9913
1399.38	17.893
1399.64	13.8408
1399.91	16.962
1400.18	20.0808
1400.45	21.1409
1400.72	24.2488
1400.99	23.2408
1401.26	23.2425
1401.53	20.1965
1401.79	19.1936
1402.06	18.1895
1402.33	16.1577
1402.6	19.2531
1402.87	25.4238
1403.14	19.2912
1403.41	16.2376
1403.68	17.2847
1403.94	21.4115
1404.21	17.3395
1404.48	20.4432
1404.75	21.4959
1405.02	20.498
1405.29	20.525
1405.56	19.5266
1405.82	25.7067
1406.09	26.7609
1406.36	32.943
1406.63	25.7912
1406.9	31.9728
1407.17	46.3595
1407.44	53.5504
1407.7	75.0874
1407.97	84.3069
1408.24	106.852
1408.51	116.076
1408.78	116.081
1409.05	85.3634
1409.31	66.9578
1409.58	55.7303
1409.85	35.2865
1410.12	32.2952
1410.39	26.1905
1410.66	21.0491
1410.92	21.0125
1411.19	18.991
1411.46	12.8814
1411.73	13.9472
1412	16.0196
1412.27	13.9896
1412.53	18.1179
1412.8	15.0604
1413.07	19.1917
1413.34	13.0552
1413.61	9.99848
1413.88	14.1311
1414.14	17.2376
1414.41	14.1808
1414.68	10.0952
1414.95	10.1177
1415.22	13.2215
1415.48	13.2431
1415.75	13.2652
1416.02	13.2857
1416.29	11.2512
1416.56	14.3512
1416.82	10.2552
1417.09	11.2963
1417.36	14.3916
1417.63	12.3507
1417.9	10.3101
1418.17	9.29754
1418.43	13.4193
1418.7	8.30795
1418.97	13.4668
1419.24	15.5512
1419.5	11.4714
1419.77	12.534
1420.04	12.578
1420.31	10.566
1420.58	9.50117
1420.84	9.44603
1421.11	12.5534
1421.38	10.4926
1421.65	11.5309
1421.92	9.51072
1422.18	10.569
1422.45	12.6483
1422.72	10.6057
1422.99	11.6611
1423.26	13.7279
1423.52	12.7143
1423.79	7.59636
1424.06	14.7823
1424.33	12.7399
1424.59	9.67124
1424.86	3.53356
1425.13	12.762
1425.4	10.7286
1425.66	9.72148
1425.93	8.7154
1426.2	11.8059
1426.47	7.72892
1426.73	10.8218
1427	9.81944
1427.27	6.76816
1427.54	8.83961
1427.81	11.9391
1428.07	6.83862
1428.34	8.91548
1428.61	12.0148
1428.88	7.92515
1429.14	8.96213
1429.41	5.89285
1429.68	6.92987
1429.94	6.93767
1430.21	10.0186
1430.48	6.94733
1430.75	6.95199
1431.02	7.9842
1431.28	6.97177
1431.55	11.0939
1431.82	5.9923
1432.08	7.03215
1432.35	8.07123
1432.62	5.01048
1432.89	8.09731
1433.15	11.1834
1433.42	8.12145
1433.69	7.10821
1433.96	7.11934
1434.22	4.05769
1434.49	6.11879
1434.76	7.1538
1435.02	4.09314
1435.29	5.13127
1435.56	4.12335
1435.83	3.11389
1436.09	6.2008
1436.36	2.1167
1436.63	5.20627
1436.89	5.22384
1437.16	2.1671
1437.43	6.28353
1437.7	5.27192
1437.96	4.25917
1438.23	3.24691
1438.5	4.28296
1438.77	8.39255
1439.03	5.32628
1439.3	11.4949
1439.57	4.32947
1439.83	8.4481
1440.1	3.32896
1440.37	7.43836
1440.63	5.39561
1440.9	7.45474
1441.17	4.38955
1441.43	6.452
1441.7	3.39359
1441.97	5.46081
1442.24	4.45368
1442.5	2.41068
1442.77	4.47123
1443.03	3.45416
1443.3	6.54014
1443.57	4.49748
1443.84	6.5573
1444.1	2.46379
1444.37	4.52284
1444.64	3.50489
1444.9	0.437157
1445.17	-0.578337
1445.44	3.53573
1445.7	3.55049
1445.97	4.58727
1446.24	4.59681
1446.5	4.60461
1446.77	5.63681
1447.04	2.56662
1447.3	2.57265
1447.57	3.60527
1447.84	1.56289
1448.1	2.59542
1448.37	0.553207
1448.64	1.58511
1448.9	3.64142
1449.17	1.59951
1449.44	6.73002
1449.7	0.591835
1449.97	5.72412
1450.24	3.68587
1450.5	3.69646
1450.77	4.73007
1451.04	1.6626
1451.3	0.645033
1451.57	3.72733
1451.83	2.71081
1452.1	0.669016
1452.37	2.72505
1452.63	1.70845
1452.9	4.79411
1453.17	1.72931
1453.43	3.78703
1453.7	2.76818
1453.97	0.723011
1454.23	0.727541
1454.5	2.78256
1454.77	-0.284542
1455.03	3.81948
1455.3	1.77809
1455.56	1.78567
1455.83	0.769371
1456.1	2.82639
1456.36	1.80947
1456.63	0.792278
1456.9	1.82305
1457.16	0.804132
1457.43	4.90733
1457.69	-0.209574
1457.96	0.819532
1458.23	-1.22451
1458.49	1.85193
1458.76	1.85566
1459.02	4.92996
1459.29	0.838232
1459.56	3.91085
1459.82	0.843245
1460.09	0.84527
1460.36	2.89234
1460.62	-2.21805
1460.89	3.92127
1461.15	3.93312
1461.42	1.90245
1461.69	2.93853
1461.95	0.90517
1462.22	1.92396
1462.48	1.8938
1462.75	2.90404
1463.02	3.92682
1463.28	0.876564
1463.55	0.880863
1463.81	0.878424
1464.08	0.880573
1464.35	-0.132513
1464.61	1.91192
1464.88	2.93573
1465.14	2.93982
1465.41	-2.15587
1465.67	1.92884
1465.94	0.912674
1466.21	1.93562
1466.47	-0.10146
1466.74	-1.11945
1467	1.9395
1467.27	-0.0978603
1467.54	-2.13371
1467.8	2.96355
1468.07	3.98527
1468.33	-1.10653
1468.6	3.98722
1468.86	0.933441
1469.13	-0.0819798
1469.39	-0.0784817
1469.66	-0.0748482
1469.93	-0.0712872
1470.19	-1.08661
1470.46	1.96912
1470.72	-1.08334
1470.99	-0.0636616
1471.25	-0.0611153
1471.52	0.960175
1471.79	0.965368
1472.05	-0.0475101
1472.32	0.974171
1472.58	-0.0405636
1472.85	1.99694
1473.11	0.980364
1473.38	-0.0354919
1473.64	-0.0335464
1473.91	2.00173
1474.17	0.984833
1474.44	-2.06448
1474.71	2.00603
1474.97	2.00871
1475.24	6.07714
1475.5	0.992653
1475.77	2.00953
1476.03	-1.03929
1476.3	0.993372
1476.56	-2.05502
1476.83	-1.03953
1477.09	-0.0244427
1477.36	2.00296
1477.62	-0.0296211
1477.89	-1.04503
1478.15	-0.029274
1478.42	1.99951
1478.68	0.988955
1478.95	-2.0499
1479.22	-1.0299
1479.48	1.00593
1479.75	-3.04992
1480.01	-3.04749
1480.28	0.00256729
1480.54	2.03693
1480.81	1.02382
1481.07	-2.02084
1481.34	2.03592
1481.6	3.0425
1481.87	0.997152
1482.13	-2.06108
1482.4	-0.0429802
1482.66	-0.0554428
1482.93	0.998144
1483.19	2.01878
1483.46	-1.01245
1483.72	-0.0154552
1483.99	-1.01832
1484.25	-1.01378
1484.52	-0.00359154
1484.78	-0.00581932
1485.05	1.00629
1485.31	-1.02006
1485.58	-0.00950623
1485.84	-0.012001
1486.11	-0.0136318
1486.37	0.997828
1486.64	-3.0492
1486.9	0.997915
1487.17	2.01084
1487.43	1.00037
1487.7	-0.0119114
1487.96	-2.0366
1488.22	-0.0159893
1488.49	-0.0163784
1488.75	0.995047
1489.02	-1.02591
1489.28	0.998068
1489.55	2.00963
1489.81	-2.03415
1490.08	2.01009
1490.34	-2.03259
1490.61	-0.0109253
1490.87	2.01101
1491.14	2.01213
1491.4	2.0142
1491.67	2.01676
1491.93	-0.00495148
1492.19	-2.0283
1492.46	-1.02119
1492.72	-1.02607
1492.99	-3.04963
1493.25	-1.03206
1493.52	-1.03355
1493.78	-1.03478
1494.05	0.982183
1494.31	0.982607
1494.58	-1.03547
1494.84	-2.04506
1495.1	-0.0265255
1495.37	3.00171
1495.63	0.984144
1495.9	-3.05187
1496.16	0.986336
1496.43	1.99722
1496.69	-3.04808
1496.96	2.00119
1497.22	0.99264
1497.48	-1.02633
1497.75	2.00206
1498.01	4.02082
1498.28	-2.03753
1498.54	-0.0217876
1498.81	0.986496
1499.07	-0.0229931
1499.34	-0.0234852
1499.6	-1.03383
1499.86	-1.03699
1500.13	0.977087
1500.39	-0.0332661
1500.66	3.99688
1500.92	-0.0365238
1501.18	-2.0517
1501.45	-1.0426
1501.71	-0.0340462
1501.98	-1.04323
1502.24	-0.0365715
1502.5	-1.04731
1502.77	0.964167
1503.03	1.96506
1503.3	0.956129
1503.56	-3.07429
1503.83	-0.0516853
1504.09	0.958233
1504.35	-1.05665
1504.62	-2.06388
1504.88	1.96656
1505.15	-0.0502262
1505.41	0.956083
1505.67	1.96366
1505.94	-1.05887
1506.2	0.956324
1506.47	-1.05956
1506.73	1.96284
1506.99	1.96434
1507.26	-0.0501862
1507.52	2.96911
1507.78	1.95752
1508.05	-0.0616512
1508.31	-2.08055
1508.58	0.93294
1508.84	-1.08879
1509.1	-0.0919304
1509.37	-1.10556
1509.63	-1.11273
1509.9	0.891304
1510.16	0.886719
1510.42	0.882753
1510.69	2.88822
1510.95	-0.120354
1511.21	-0.114458
1511.48	-3.12691
1511.74	-0.115747
1512.01	1.88838
1512.27	0.878773
1512.53	0.873716
1512.8	-0.135658
1513.06	-0.141279
1513.32	-0.145586
1513.59	-2.15355
1513.85	-0.150026
1514.11	-0.151882
1514.38	-1.15575
1514.64	-2.15893
1514.9	-1.15601
1515.17	-1.15406
1515.43	-0.150997
1515.7	-2.1567
1515.96	-1.15359
1516.22	0.853254
1516.49	-3.15922
1516.75	0.853807
1517.01	-1.15397
1517.28	-0.153
1517.54	-0.155056
1517.8	-3.16462
1518.07	-2.16094
1518.33	-0.153786
1518.59	-3.16432
1518.86	-0.155626
1519.12	0.845291
1519.38	-1.16392
1519.65	-0.163645
1519.91	-1.16929
1520.17	1.83566
1520.44	0.826752
1520.7	-1.18526
1520.96	-1.19041
1521.23	-0.193048
1521.49	-1.19838
1521.75	-1.20183
1522.02	-0.199791
1522.28	-0.199993
1522.54	3.80563
1522.81	1.8042
1523.07	-1.19892
1523.33	1.81044
1523.59	-0.191387
1523.86	-0.191031
1524.12	1.81239
1524.38	-1.19801
1524.65	-3.20441
1524.91	2.80597
1525.17	-0.202705
1525.44	0.796185
1525.7	0.793234
1525.96	-3.21624
1526.23	-1.21471
1526.49	-0.214403
1526.75	-0.216499
1527.02	2.78397
1527.28	-1.22354
1527.54	-1.22327
1527.8	0.782074
1528.07	-2.22103
1528.33	-0.215805
1528.59	-0.216476
1528.86	-1.2207
1529.12	0.782751
1529.38	-1.22458
1529.64	-0.221947
1529.91	0.783504
1530.17	-2.21919
1530.43	0.793083
1530.69	-0.208618
1530.96	-0.208342
1531.22	-0.209578
1531.48	2.79773
1531.75	-1.21699
1532.01	-0.21682
1532.27	-0.219362
1532.53	0.779287
1532.8	1.77155
1533.06	-1.24078
1533.32	-1.24529
1533.59	3.75483
1533.85	-2.25947
1534.11	-2.26542
1534.37	0.73295
1534.64	0.72765
1534.9	-0.273397
1535.16	0.722303
1535.42	-0.284124
1535.69	-3.28578
1535.95	0.709801
1536.21	-0.286566
1536.48	0.721991
1536.74	-1.26856
1537	0.741396
1537.26	-0.254446
1537.53	-1.25071
1537.79	-1.24758
1538.05	1.76198
1538.31	-1.25429
1538.58	0.748795
1538.84	-0.259142
1539.1	-0.264282
1539.36	1.73377
1539.62	0.726748
1539.89	-1.28071
1540.15	-4.28803
1540.41	-1.29005
1540.67	0.704752
1540.94	-1.30252
1541.2	-0.302797
1541.46	0.697212
1541.72	-0.300621
1541.98	-0.296652
1542.25	1.70752
1542.51	0.712622
1542.77	3.71988
1543.03	2.71988
1543.3	-2.28749
1543.56	-3.29107
1543.82	0.715384
1544.08	-0.285458
1544.35	-1.28647
1544.61	-0.283634
1544.87	-0.287945
1545.13	-0.297758
1545.39	1.70395
1545.66	-3.30328
1545.92	-1.29631
1546.18	-2.3121
1546.44	-1.32847
1546.71	-1.33319
1546.97	-0.325665
1547.23	-0.309933
1547.49	-2.29095
1547.75	-1.27263
1548.02	-1.25747
1548.28	0.738768
1548.54	-1.26851
1548.8	-0.268402
1549.06	-0.274857
1549.33	-2.27655
1549.59	1.7466
1549.85	-1.26968
1550.11	-0.270544
1550.37	0.719635
1550.64	1.7191
1550.9	0.713703
1551.16	0.7094
1551.42	3.7114
1551.68	0.697023
1551.94	2.69374
1552.21	1.68865
1552.47	3.69005
1552.73	1.68567
1552.99	1.68603
1553.25	0.683815
1553.52	3.68522
1553.78	-0.321932
1554.04	1.68182
1554.3	0.680386
1554.56	2.68359
1554.82	0.678341
1555.09	0.674517
1555.35	0.66827
1555.61	-2.33971
1555.87	3.65876
1556.13	-0.349688
1556.39	-1.35482
1556.65	-1.35886
1556.92	-0.362545
1557.18	1.63362
1557.44	-2.36683
1557.7	-3.36802
1557.96	2.62652
1558.22	2.6257
1558.49	0.627623
1558.75	-0.369387
1559.01	-1.36541
1559.27	-0.361111
1559.53	-2.36181
1559.79	3.63759
1560.05	-0.364769
1560.32	2.63577
1560.58	-1.36655
1560.84	-1.36813
1561.1	0.637213
1561.36	1.64425
1561.62	0.645332
1561.88	2.64524
1562.15	-1.36618
1562.41	-2.39199
1562.67	-1.43129
1562.93	3.52032
1563.19	1.60666
1563.45	-1.37091
1563.71	-2.3786
1563.98	2.60529
1564.24	-1.37817
1564.5	2.63781
1564.76	-1.36814
1565.02	4.61823
1565.28	-0.378294
1565.54	3.62325
1565.8	-1.37538
1566.07	-0.377172
1566.33	-0.383537
1566.59	-1.38672
1566.85	2.61029
1567.11	-0.386538
1567.37	-0.386417
1567.63	-0.386412
1567.89	-1.38635
1568.15	1.61082
1568.42	1.60898
1568.68	-0.3923
1568.94	2.60135
1569.2	-1.39503
1569.46	0.600473
1569.72	1.59552
1569.98	0.594254
1570.24	-1.40493
1570.5	0.588688
1570.77	-0.411898
1571.03	0.586325
1571.29	1.58755
1571.55	-0.405153
1571.81	-0.401276
1572.07	-0.397181
1572.33	1.60501
1572.59	-0.390282
1572.85	-0.389458
1573.11	2.60728
1573.37	1.60766
1573.64	2.60486
1573.9	-2.39553
1574.16	-1.40247
1574.42	1.58647
1574.68	0.582386
1574.94	2.5719
1575.2	0.571867
1575.46	2.56273
1575.72	0.567816
1575.98	-0.429148
1576.24	3.55855
1576.5	-1.42576
1576.76	0.569244
1577.03	-0.425167
1577.29	2.56784
1577.55	0.573992
1577.81	2.56788
1578.07	2.56592
1578.33	0.5693
1578.59	1.56409
1578.85	0.564093
1579.11	1.55702
1579.37	-1.43292
1579.63	-1.43368
1579.89	-1.43456
1580.15	2.54926
1580.41	2.54902
1580.67	2.54892
1580.93	0.55547
1581.19	1.55172
1581.46	0.557714
1581.72	1.55538
1581.98	-1.43181
1582.24	2.55296
1582.5	-3.42403
1582.76	1.55629
1583.02	0.559113
1583.28	-0.440123
1583.54	2.54276
1583.8	-1.44134
1584.06	3.53295
1584.32	1.54122
1584.58	1.5402
1584.84	-0.449972
1585.1	0.545649
1585.36	0.547636
1585.62	1.54532
1585.88	-1.43714
1586.14	-0.43924
1586.4	1.55451
1586.66	3.54809
1586.92	1.55823
1587.18	-0.432405
1587.44	0.565308
1587.7	0.568045
1587.96	-0.425486
1588.22	4.55421
1588.48	-0.424555
1588.74	1.56675
1589	-2.41717
1589.26	1.56244
1589.52	-1.42808
1589.78	1.55397
1590.04	1.55207
1590.3	-1.43705
1590.56	0.545855
1590.82	3.52046
1591.08	2.52275
1591.34	-0.458715
1591.6	-0.457817
1591.86	-2.4417
1592.12	-0.450737
1592.38	0.546095
1592.64	-3.42754
1592.9	-1.44621
1593.16	2.52734
1593.42	2.52833
1593.68	-0.450165
1593.94	0.544743
1594.2	0.546997
1594.46	0.549572
1594.72	-1.43483
1594.98	1.54634
1595.24	1.5457
1595.5	1.54358
1595.76	0.546846
1596.02	-0.44891
1596.28	1.53425
1596.54	1.53234
1596.8	-0.45392
1597.06	-1.44749
1597.32	0.534929
1597.58	-2.44215
1597.84	-0.461565
1598.1	0.525776
1598.36	1.51214
1598.62	-1.46388
1598.88	0.513706
1599.14	-1.46856
1599.4	0.509405
1599.66	0.507044
1599.92	1.49358
1600.18	-2.46562
1600.44	-0.488987
1600.7	0.499174
1600.96	-0.489609
1601.22	-1.47729
1601.48	1.49059
1601.73	0.503803
1601.99	1.49422
1602.25	0.507292
1602.51	-1.46826
1602.77	1.5012
1603.03	2.49384
1603.29	1.50871
1603.55	-2.44449
1603.81	3.49483
1604.07	3.49812
1604.33	-0.457691
1604.59	0.533171
1604.85	-1.44475
1605.11	-0.453932
1605.37	-0.452532
1605.63	0.538193
1605.89	-3.41873
1606.14	1.5249
1606.4	-0.456535
1606.66	1.51814
1606.92	2.50285
1607.18	1.4926
1607.44	1.52875
1607.7	-0.424913
1607.96	-0.412527
1608.22	2.29217
1608.48	3.31953
1608.74	-0.424004
1609	0.346598
1609.26	0.538313
1609.51	-0.645843
1609.77	-2.9831
1610.03	-2.20194
1610.29	-0.511192
1610.55	-0.285141
1610.81	0.620777
1611.07	-0.326103
1611.33	0.459023
1611.59	-0.485996
1611.85	-1.17933
1612.11	2.16684
1612.36	1.43518
1612.62	-0.412327
1612.88	1.87088
1613.14	0.60911
1613.4	-0.76346
1613.66	-0.0136795
1613.92	3.02119
1614.18	-0.0569439
1614.44	0.930149
1614.7	0.684406
1614.95	-0.177944
1615.21	0.552025
1615.47	-0.11849
1615.73	2.18766
1615.99	0.146929
1616.25	0.776409
1616.51	-1.84044
1616.77	0.421261
1617.03	0.972105
1617.28	0.183498
1617.54	-0.0416622
1617.8	-1.9101
1618.06	0.305124
1618.32	0.0293236
1618.58	0.0381565
1618.84	-2.17996
1619.1	-1.7107
1619.35	-1.12828
1619.61	-0.182095
1619.87	0.460388
1620.13	0.419907
1620.39	1.71604
1620.65	-0.927716
1620.91	-1.2383
1621.17	1.43543
1621.42	0.122873
1621.68	1.33957
1621.94	-1.07612
1622.2	-1.10003
1622.46	-0.493618
1622.72	1.38782
1622.98	-0.690455
1623.23	-0.466448
1623.49	-0.26012
1623.75	0.810951
1624.01	0.325058
1624.27	-0.253952
1624.53	0.427074
1624.79	0.93754
1625.04	0.394011
1625.3	-0.836472
1625.56	1.0335
1625.82	-1.53194
1626.08	0.368862
1626.34	0.829302
1626.59	0.147049
1626.85	0.734591
1627.11	0.958633
1627.37	1.58069
1627.63	-0.316887
1627.89	0.4279
1628.14	-1.38834
1628.4	3.56294
1628.66	-1.43414
1628.92	-2.32284
1629.18	-1.39601
1629.44	0.886824
1629.69	-0.329735
1629.95	0.132225
1630.21	2.8636
1630.47	1.5066
1630.73	1.30847
1630.99	0.439432
1631.24	1.07745
1631.29	1.25523
1631.55	0.272945
1631.81	0.275837
1632.07	1.2638
1632.33	0.280039
1632.59	-0.703975
1632.86	0.282837
1633.12	0.283728
1633.38	2.25492
1633.64	3.24041
1633.9	-4.63971
1634.16	2.25495
1634.42	2.2547
1634.68	-0.697783
1634.95	-2.66497
1635.21	3.24336
1635.47	-1.67773
1635.73	2.26164
1635.99	3.24897
1636.25	3.25174
1636.51	-1.66737
1636.77	0.30402
1637.03	-0.677887
1637.3	-1.65985
1637.56	-0.671412
1637.82	-0.665794
1638.08	0.323551
1638.34	-2.62754
1638.6	0.327986
1638.86	-0.655253
1639.12	1.31551
1639.39	-0.651253
1639.65	2.30406
1639.91	-0.646786
1640.17	2.30851
1640.43	2.31119
1640.69	-0.639446
1640.95	-1.62205
1641.21	0.347349
1641.47	2.31517
1641.73	-2.60253
1641.99	0.351341
1642.25	-0.627384
1642.52	2.32917
1642.78	1.3497
1643.04	1.35219
1643.3	-0.614645
1643.56	1.35426
1643.82	-1.59573
1644.08	0.373983
1644.34	0.374874
1644.6	2.34343
1644.86	-0.605498
1645.12	1.36461
1645.38	-0.598544
1645.65	0.391483
1645.91	1.38175
1646.17	1.39583
1646.43	2.38306
1646.69	3.36917
1646.95	0.416836
1647.21	0.420828
1647.47	3.38445
1647.73	-0.548714
1647.99	1.42791
1648.25	-0.536297
1648.51	3.41024
1648.77	1.44326
1649.03	-0.524492
1649.29	-0.521216
1649.55	1.45383
1649.82	0.469019
1650.08	-0.514813
1650.34	7.36968
1650.6	3.43232
1650.86	1.46608
1651.12	3.44216
1651.38	1.47545
1651.64	-2.46267
1651.9	-0.487114
1652.16	1.48991
1652.42	-2.44686
1652.68	-1.45303
1652.94	-0.457941
1653.2	-0.451382
1653.46	1.52812
1653.72	-0.44141
1653.98	0.549522
1654.24	2.52629
1654.5	0.553854
1654.76	4.50311
1655.02	-0.429063
1655.28	0.559763
1655.54	1.54784
1655.81	-1.41083
1656.07	-0.42324
1656.33	1.55025
1656.58	0.564968
1656.84	2.5374
1657.11	-1.4049
1657.37	-0.414284
1657.63	-0.408792
1657.89	0.583288
1658.15	-0.396637
1658.41	-0.390202
1658.67	-0.384147
1658.93	-0.378833
1659.19	2.57976
1659.45	1.59494
1659.71	1.62838
1659.97	0.653034
1660.23	1.63751
1660.49	0.652348
1660.75	-1.33546
1661.01	0.625265
1661.27	2.6165
1661.53	1.63576
1661.79	-0.331858
1662.05	4.6192
1662.31	0.669191
1662.57	1.63438
1662.83	0.659492
1663.09	0.693614
1663.35	0.697414
1663.61	-1.27462
1663.87	1.64051
1664.13	-2.30459
1664.39	1.67166
1664.65	0.684413
1664.91	0.685912
1665.17	0.687099
1665.43	-0.298205
1665.69	-2.26624
1665.95	0.707076
1666.21	0.717294
1666.47	0.722002
1666.72	0.726017
1666.99	-2.23316
1667.25	0.730678
1667.51	-0.25067
1667.76	0.750543
1668.02	-1.2207
1668.28	3.72343
1668.54	1.74912
1668.8	0.763579
1669.06	-2.19659
1669.32	-1.20368
1669.58	1.76591
1669.84	-0.207854
1670.1	2.76143
1670.36	-1.18858
1670.62	0.792884
1670.88	-1.17956
1671.14	0.803314
1671.4	0.809294
1671.66	2.79293
1671.92	-1.15772
1672.18	-0.161641
1672.44	0.833529
1672.7	-0.151214
1672.96	0.841909
1673.22	-2.12358
1673.48	-0.139864
1673.74	-0.135453
1674	-1.12126
1674.25	0.861433
1674.51	1.85364
1674.77	-1.11317
1675.03	0.867013
1675.29	-1.11119
1675.55	-2.09973
1675.81	1.85694
1676.07	-0.119087
1676.33	-0.117268
1676.59	1.8622
1676.85	-2.08968
1677.11	-0.110723
1677.37	-0.108236
1677.63	2.85814
1677.89	0.883898
1678.15	0.886213
1678.4	-0.0987062
1678.66	-1.08319
1678.92	-2.06754
1679.18	2.87569
1679.44	-0.0842094
1679.7	-0.0804138
1679.96	-1.0653
1680.22	-1.062
1680.48	0.917263
1680.74	-0.0670719
1681	-0.0639858
1681.25	0.926066
1681.51	-0.0601168
1681.77	-2.03272
1682.03	2.90779
1682.29	-1.03897
1682.55	2.91428
1682.81	-0.0444498
1683.07	-1.02809
1683.33	-1.02392
1683.59	-2.00614
1683.84	-0.0244598
1684.1	-1.00739
1684.36	0.971984
1684.62	1.96201
1684.88	-0.0117598
1685.14	-1.98494
1685.4	-0.00761509
1685.66	1.96903
1685.92	1.9697
1686.18	-1.97816
1686.43	-0.00312138
1686.69	1.97111
1686.95	-0.988259
1687.21	0.984787
1687.47	0.00329971
1687.73	0.996372
1687.99	-2.94455
1688.25	1.00696
1688.51	1.99809
1688.76	-1.94343
1689.02	1.02188
1689.28	2.01225
1689.54	2.0147
1689.8	0.0418587
1690.06	3.00209
1690.32	-0.943814
1690.58	-1.93022
1690.84	1.02641
1691.09	-1.92919
1691.35	3.98354
1691.61	1.02782
1691.87	0.0443954
1692.13	2.01849
1692.39	-0.931967
1692.64	-0.927601
1692.9	1.04736
1693.16	-1.90368
1693.42	0.0730124
1693.68	-0.907817
1693.94	-1.89018
1694.2	-0.90274
1694.46	2.05336
1694.71	-1.88733
1694.97	0.0821075
1695.23	0.0826998
1695.49	-0.900551
1695.75	-0.899256
1696.01	0.0865936
1696.26	0.0893221
1696.52	-0.891144
1696.78	2.06534
1697.04	-1.86705
1697.3	0.104321
1697.56	-0.878678
1697.81	2.0759
1698.07	-0.8726
1698.33	-0.869933
1698.59	1.09929
1698.85	-1.85022
1699.11	0.117172
1699.37	1.10097
1699.62	0.118506
1699.88	0.119757
1700.14	0.122581
1700.4	1.1082
1700.66	0.128023
1700.91	0.130248
1701.17	0.133526
1701.43	0.1387
1701.69	0.143867
1701.95	0.147574
1702.21	-0.83231
1702.46	-0.829407
1702.72	-0.825794
1702.98	-0.822889
1703.24	3.10761
1703.5	0.160692
1703.75	3.10627
1704.01	-1.80314
1704.27	1.14152
1704.53	0.160095
1704.79	-0.821658
1705.04	0.157906
1705.3	-0.823703
1705.56	-0.82501
1705.82	2.11221
1706.08	1.13123
1706.33	0.152217
1706.59	-2.78323
1706.85	1.13536
1707.11	-0.819103
1707.37	-0.81531
1707.62	-1.79032
1707.88	-1.78531
1708.14	0.178404
1708.4	-1.77538
1708.66	0.188111
1708.91	-0.78694
1709.17	-1.76317
1709.43	0.196929
1709.69	-0.783737
1709.95	0.192418
1710.2	-1.76726
1710.46	-0.790752
1710.72	1.1616
1710.98	0.182938
1711.23	-1.77004
1711.49	-0.791397
1711.75	1.16437
1712.01	0.190224
1712.27	1.17035
1712.52	-1.75286
1712.78	-2.72482
1713.04	-2.72183
1713.3	0.211267
1713.55	-0.764667
1713.81	0.211987
1714.07	-0.765536
1714.33	0.208478
1714.58	0.205053
1714.84	0.20057
1715.1	-1.75126
1715.36	0.195231
1715.61	1.16805
1715.87	2.1419
1716.13	-1.75098
1716.39	2.14702
1716.64	-2.71823
1716.9	0.204941
1717.16	0.210361
1717.42	2.1608
1717.68	0.214834
1717.93	-1.73164
1718.19	0.213794
1718.45	-0.758435
1718.71	2.15983
1718.96	0.214192
1719.22	-0.758633
1719.48	1.18488
1719.74	-3.67454
1719.99	2.15504
1720.25	-1.73043
1720.51	0.212987
1720.76	1.18577
1721.02	1.18923
1721.28	2.16155
1721.54	1.19317
1721.79	0.222391
1722.05	-3.66051
1722.31	4.09813
1722.56	-1.72331
1722.82	-1.72502
1723.08	2.15196
1723.34	1.18476
1723.59	-1.71816
1723.85	2.15957
1724.11	-0.747001
1724.37	3.12564
1724.62	-0.744348
1724.88	0.230412
1725.14	-1.7055
1725.39	0.231676
1725.65	1.19344
1725.91	0.20625
1726.17	1.15459
1726.42	-1.74097
1726.68	-0.764513
1726.94	0.211409
1727.19	-0.749668
1727.45	0.211417
1727.71	0.211055
1727.96	-1.71322
1728.22	-1.69921
1728.48	0.23748
1728.74	0.240655
1728.99	1.20966
1729.25	1.21153
1729.51	-0.719551
1729.76	-0.718227
1730.02	-0.717542
1730.28	-0.717897
1730.53	-1.68501
1730.79	0.242555
1731.05	1.20455
1731.3	1.20262
1731.56	1.20052
1731.82	1.19829
1732.08	0.232627
1732.33	-2.65858
1732.59	-1.69587
1732.85	0.229878
1733.1	0.230858
1733.36	-0.730045
1733.62	0.233615
1733.87	0.234557
1734.13	1.19749
1734.39	0.236057
1734.64	-1.68662
1734.9	1.19962
1735.16	-1.68516
1735.41	0.237574
1735.67	1.19846
1735.93	1.19788
1736.18	-1.68531
1736.44	-2.64685
1736.7	1.19098
1736.95	0.227038
1737.21	1.18286
1737.47	3.09742
1737.72	-0.739058
1737.98	2.13542
1738.24	0.218191
1738.49	-0.740126
1738.75	-0.740149
1739.01	2.13318
1739.26	0.219534
1739.52	-2.65066
1739.78	1.18015
1740.03	-1.69034
1740.29	1.18334
1740.54	-1.68577
1740.8	-1.68483
1741.06	0.22854
1741.31	0.229131
1741.57	0.229445
1741.83	-0.724767
1742.08	-0.722047
1742.34	-1.67557
1742.6	1.19652
1742.85	0.24164
1743.11	0.242086
1743.36	2.15364
1743.62	1.19581
1743.88	-0.717553
1744.13	0.237661
1744.39	1.19046
1744.65	-0.719617
1744.9	0.234038
1745.16	-0.718771
1745.42	1.19277
1745.67	0.241128
1745.93	-1.66479
1746.18	-0.706537
1746.44	-0.702118
1746.7	0.257858
1746.95	-0.691665
1747.21	0.269554
1747.46	0.275616
1747.72	-0.674772
1747.98	-1.62736
1748.23	2.20079
1748.49	1.24708
1748.74	-0.664888
1749	-1.6223
1749.26	1.24216
1749.51	0.286151
1749.77	-1.62431
1750.02	-1.62483
1750.28	-0.670768
1750.54	-1.62513
1750.79	-0.67077
1751.05	2.19102
1751.31	1.23592
1751.56	-0.671983
1751.82	0.281753
1752.07	-0.671088
1752.33	-2.57661
1752.59	0.283147
1752.84	-3.52854
1753.1	-0.670772
1753.35	0.280449
1753.61	2.1828
1753.86	-1.62751
1754.12	2.17679
1754.38	4.07761
1754.63	0.272986
1754.89	0.274229
1755.14	-0.672679
1755.4	1.23584
1755.66	-0.663751
1755.91	1.24191
1756.17	0.292808
1756.42	-0.656098
1756.68	-1.60503
1756.93	0.299961
1757.19	0.301048
1757.44	1.25341
1757.7	-0.648643
1757.96	-3.50191
1758.21	1.25368
1758.47	-1.59986
1758.72	-2.5505
1758.98	1.25288
1759.23	0.303264
1759.49	-3.49638
1759.75	1.26122
1760	3.1664
1760.26	1.26677
1760.51	0.317813
1760.77	1.27145
1761.02	-0.62699
1761.28	2.22989
1761.53	-1.56837
1761.79	-1.56245
1762.05	-0.606579
1762.3	1.30096
1762.56	-0.599537
1762.81	-1.54865
1763.07	1.30994
1763.32	0.359841
1763.58	-3.44689
1763.83	3.21769
1764.09	1.31527
1764.34	0.364829
1764.6	-2.48993
1764.85	-2.48986
1765.11	0.365228
1765.37	-1.53767
1765.62	-2.48733
1765.88	-0.585035
1766.13	0.36062
1766.39	2.25538
1766.64	0.348763
1766.9	-0.601533
1767.15	1.30035
1767.41	1.30763
1767.66	0.361537
1767.92	2.26399
1768.17	1.31737
1768.43	-3.42767
1768.68	1.33184
1768.94	-1.51819
1769.19	-1.51518
1769.45	0.391515
1769.7	0.396425
1769.96	1.35181
1770.21	-0.547695
1770.47	0.407478
1770.72	1.36264
1770.98	-1.48984
1771.23	0.416915
1771.49	-0.532534
1771.74	-0.529917
1772	-1.4783
1772.26	2.33387
1772.51	2.33971
1772.76	-1.4628
1773.02	0.448017
1773.27	-2.40869
1773.53	-0.50014
1773.78	0.45387
1774.04	0.453445
1774.29	0.452709
1774.55	-0.500195
1774.8	-1.45381
1775.06	-3.35953
1775.31	-0.502838
1775.57	2.35276
1775.82	-0.505298
1776.08	-0.507428
1776.33	1.39365
1776.59	-1.46071
1776.84	0.444666
1777.1	0.449861
1777.35	0.45246
1777.61	0.455227
1777.86	0.4582
1778.12	-0.490996
1778.37	-0.489041
1778.63	-1.43874
1778.88	1.42069
1779.13	-0.480073
1779.39	2.38159
1779.65	0.481288
1779.9	-0.467901
1780.15	-1.41772
1780.41	-2.36776
1780.66	-0.458246
1780.92	-0.454847
1781.17	-1.40469
1781.43	-0.44681
1781.68	1.46569
1781.94	-0.438792
1782.19	0.517624
1782.45	0.51885
1782.7	-0.434774
1782.95	-0.43488
1783.21	2.42725
1783.46	1.47537
1783.72	0.524538
1783.97	2.43702
1784.23	2.44236
1784.48	-0.415382
1784.74	3.41304
1784.99	-0.397681
1785.24	-2.29993
1785.5	-0.377522
1785.75	0.58577
1786.01	-2.2826
1786.26	0.595664
1786.52	0.602161
1786.77	-1.31001
1787.03	-3.22393
1787.28	0.613296
1787.54	0.616035
1787.79	-0.341584
1788.04	0.617873
1788.3	0.612177
1788.55	-2.26585
1788.81	-0.350444
1789.06	-1.30769
1789.31	-1.30604
1789.57	0.611047
1789.82	1.57157
1790.08	-1.29924
1790.33	2.53516
1790.59	0.620002
1790.84	1.5807
1791.09	-0.333183
1791.35	-0.331138
1791.6	-0.331442
1791.86	-1.28983
1792.11	0.635859
1792.36	-0.311628
1792.62	0.655281
1792.87	-0.300347
1793.13	-3.17705
1793.38	-0.29306
1793.64	-1.24969
1793.89	2.59672
1794.14	-0.281307
1794.4	4.52756
1794.65	-1.23558
1794.9	0.689798
1795.16	0.692536
1795.41	1.65642
1795.67	0.696718
1795.92	-3.14864
1796.17	0.69756
1796.43	-2.18737
1796.68	-1.22721
1796.94	0.693172
1797.19	0.691717
1797.44	-1.23082
1797.7	0.690022
1797.95	-1.23132
1798.21	0.690034
1798.46	3.57214
1798.71	1.65232
1798.97	-1.22763
1799.22	-0.265018
1799.47	2.61967
1799.73	0.701314
1799.98	-1.21718
1800.24	-0.252236
1800.49	-1.2097
1800.74	1.67817
1801	-0.243279
1801.25	-1.20338
1801.5	2.64744
1801.76	-2.15896
1802.01	-0.231252
1802.27	-0.226917
1802.52	-0.222474
1802.77	-2.14426
1803.03	0.748816
1803.28	-1.17461
1803.53	-0.208141
1803.79	1.7219
1804.04	0.760113
1804.29	-0.202553
1804.55	-0.201639
1804.8	0.763032
1805.05	1.72792
1805.31	-1.1625
1805.56	1.73029
1805.81	0.767709
1806.07	0.769083
1806.32	-2.12154
1806.58	2.69984
1806.83	-1.15494
1807.08	-1.15365
1807.34	0.775821
1807.59	-0.187626
1807.84	-2.11596
1808.1	0.776471
1808.35	-1.15108
1808.6	-3.07876
1808.86	0.778064
1809.11	-0.184982
1809.36	-2.11158
1809.62	2.71184
1809.87	1.7508
1810.12	-1.13941
1810.38	-1.13739
1810.63	-1.13559
1810.88	-1.13273
1811.14	-0.163623
1811.39	-1.12476
1811.64	2.74328
1811.9	-2.08162
1812.15	-1.11244
1812.4	-1.11011
1812.65	0.82437
1812.91	-2.07377
1813.16	-1.10594
1813.41	-2.07138
1813.67	0.83063
1813.92	-1.10222
1814.17	3.73141
1814.43	0.827657
1814.68	1.78678
1814.93	0.818727
1815.19	-0.145149
1815.44	0.824471
1815.69	-1.10319
1815.95	-0.135962
1816.2	-1.10178
1816.45	0.832897
1816.7	-2.06442
1816.96	-0.129245
1817.21	0.839499
1817.46	0.841969
1817.72	-1.08963
1817.97	-2.05507
1818.22	-0.118716
1818.47	-0.116087
1818.73	-1.08093
1818.98	-1.07863
1819.23	0.858953
1819.49	-0.107174
1819.74	1.83012
1819.99	0.863487
1820.24	0.864607
1820.5	2.8003
1820.75	-0.10462
1821	-2.04143
1821.26	1.83091
1821.51	-3.0071
1821.76	0.866575
1822.01	-0.0998039
1822.27	0.870381
1822.52	0.872442
1822.77	0.873658
1823.03	-0.0942669
1823.28	0.874473
1823.53	-0.0930643
1823.78	-0.0923939
1824.04	3.78255
1824.29	0.878569
1824.54	-0.0882635
1824.79	1.85145
1825.05	-0.0845938
1825.3	-1.05363
1825.55	2.82171
1825.8	0.882352
1826.06	1.84914
1826.31	-0.0886927
1826.56	3.78536
1826.81	0.879433
1827.07	-0.0895891
1827.32	-2.02788
1827.57	1.84404
1827.82	-0.0936108
1828.08	1.84385
1828.33	-2.02679
1828.58	-0.0880222
1828.83	0.882823
1829.09	0.884953
1829.34	-0.081542
1829.59	-1.04816
1829.84	-1.04489
1830.1	-1.04323
1830.35	-0.0738773
1830.6	6.71219
1830.85	0.898275
1831.11	-0.0705605
1831.36	-0.0693531
1831.61	0.894444
1831.86	0.886043
1832.12	-1.05705
1832.37	-1.06264
1832.62	0.869315
1832.87	-1.06878
1833.13	0.866502
1833.38	-0.098423
1833.63	-1.97544
1833.88	-0.05478
1834.13	0.89859
1834.39	-0.07512
1834.64	0.881981
1834.89	-1.06263
1835.14	-2.04264
1835.39	-2.04778
1835.65	-2.04453
1835.9	0.882298
1836.15	0.889096
1836.4	0.89407
1836.65	1.8649
1836.91	-0.070612
1837.16	0.899157
1837.41	0.883766
1837.66	-1.06072
1837.92	-0.101009
1838.17	-1.07429
1838.42	-0.114136
1838.67	-1.0858
1838.92	1.80523
1839.18	1.79964
1839.43	-1.09957
1839.68	-1.10207
1839.93	-0.135486
1840.18	0.828289
1840.43	0.829848
1840.69	0.82968
1840.94	0.829391
1841.19	-0.136246
1841.44	1.7935
1841.7	-1.09876
1841.95	-0.134507
1842.2	-0.135938
1842.45	-2.06446
1842.7	0.831307
1842.95	-1.09234
1843.2	0.844371
1843.46	-0.114058
1843.71	0.856577
1843.96	-2.05242
1844.21	0.821111
1844.46	-0.16029
1844.72	-0.163303
1844.97	1.76489
1845.22	-1.1167
1845.47	-0.151497
1845.72	-2.08349
1845.97	-1.12255
1846.23	2.72806
1846.48	3.68688
1846.73	0.794785
1846.98	-0.171672
1847.23	-0.176371
1847.48	1.74163
1847.74	-2.10716
1847.99	-0.188356
1848.24	2.69064
1848.49	2.68775
1848.74	-0.195489
1848.99	-0.196599
1849.25	-2.11745
1849.5	-0.19698
1849.75	-1.15714
1850	0.763275
1850.25	-1.15771
1850.5	-0.198466
1850.75	-1.16031
1851.01	1.71608
1851.26	-2.12659
1851.51	-2.13064
1851.76	-1.17454
1852.01	1.70041
1852.26	-3.09586
1852.51	-1.18301
1852.76	1.68734
1853.02	2.64319
1853.27	1.68393
1853.52	-2.14776
1853.77	-2.1476
1854.02	-0.232264
1854.27	0.724783
1854.52	-1.19214
1854.78	0.721458
1855.03	-1.19527
1855.28	-0.240264
1855.53	-1.20028
1855.78	0.71034
1856.03	-1.20631
1856.28	-1.20958
1856.53	-0.256789
1856.79	1.6535
1857.04	1.65387
1857.29	0.697591
1857.54	1.65545
1857.79	0.702607
1858.04	-0.251755
1858.29	-1.20618
1858.54	-0.246686
1858.79	-1.20182
1859.04	-0.244633
1859.3	1.66801
1859.55	0.708383
1859.8	-1.20803
1860.05	-2.16746
1860.3	2.61002
1860.55	1.65033
1860.8	-0.264278
1861.05	-0.26689
1861.3	-0.269444
1861.56	-2.18211
1861.81	-0.274405
1862.06	0.677286
1862.31	-2.19028
1862.56	1.62276
1862.81	0.663419
1863.06	3.51786
1863.31	0.651121
1863.56	0.644698
1863.81	-1.26597
1864.06	0.632284
1864.32	0.62631
1864.57	-0.33029
1864.82	-0.333902
1865.07	1.56581
1865.32	0.613492
1865.57	-0.337891
1865.82	0.613431
1866.07	1.56495
1866.32	-1.28773
1866.57	1.56341
1866.82	-2.23992
1867.07	0.610998
1867.32	2.51122
1867.57	3.46084
1867.83	-0.341427
1868.08	0.608688
1868.33	0.608397
1868.58	1.55727
1868.83	1.55529
1869.08	-0.347579
1869.33	0.600969
1869.58	3.44875
1869.83	-0.353392
1870.08	1.54279
1870.33	-1.30688
1870.58	-0.358009
1870.83	0.589775
1871.08	-0.361643
1871.33	-0.364435
1871.58	0.581005
1871.84	-0.371188
1872.08	2.46967
1872.33	-1.32651
1872.59	-1.33033
1872.84	-1.33559
1873.09	2.44414
1873.34	-0.400353
1873.59	-0.404336
1873.84	-0.407278
1874.09	0.53565
1874.34	-2.30842
1874.59	-2.31709
1874.84	2.39243
1875.09	2.42079
1875.34	2.46719
1875.59	1.49071
1875.84	2.4343
1876.09	0.544105
1876.34	-0.389223
1876.59	-1.3337
1876.84	1.50262
1877.09	-0.39462
1877.34	1.49852
1877.59	-1.34175
1877.84	-0.393165
1878.09	0.550642
1878.34	-1.34449
1878.59	0.541883
1878.84	-1.35683
1879.09	-3.25376
1879.34	1.46363
1879.59	1.45402
1879.84	-0.442138
1880.1	-0.447645
1880.34	0.517092
1880.59	-0.378861
1880.84	-1.37999
1881.1	0.482808
1881.34	-2.34058
1881.59	-1.39475
1881.84	0.487163
1882.1	0.493635
1882.34	0.499511
1882.59	0.501545
1882.85	0.505295
1883.1	-0.432863
1883.34	0.51446
1883.59	-0.42888
1883.85	0.512501
1884.09	1.45132
1884.34	1.44783
1884.59	2.38767
1884.84	0.497084
1885.09	0.493281
1885.34	2.37398
1885.59	0.483097
1885.84	-1.40579
1886.09	-0.468178
1886.34	-0.471766
1886.59	0.468273
1886.84	-3.29775
1887.09	-1.41504
1887.34	-0.471618
1887.59	1.41532
1887.84	0.476213
1888.09	1.41873
1888.34	-0.46604
1888.59	3.30052
1888.84	-0.467056
1889.09	2.35715
1889.34	-1.40985
1889.59	-0.469205
1889.84	-1.41273
1890.09	-1.41567
1890.34	-1.42137
1890.59	4.21324
1890.84	-0.493772
1891.09	2.32832
1891.34	0.446559
1891.59	0.4425
1891.84	0.440427
1892.09	1.37954
1892.34	0.440907
1892.59	1.38189
1892.83	0.444061
1893.08	1.38577
1893.33	2.32804
1893.58	2.33121
1893.83	1.39424
1894.08	2.33728
1894.33	0.45832
1894.58	0.459629
1894.83	-1.42109
1895.08	-1.42124
1895.33	-1.42208
1895.58	1.39768
1895.83	-1.42595
1896.08	-0.488907
1896.33	1.38752
1896.58	-0.493918
1896.83	0.444421
1897.08	-0.497055
1897.32	2.32002
1897.57	0.441266
1897.82	1.38177
1898.07	-3.3138
1898.32	2.32689
1898.57	0.4505
1898.82	-0.486372
1899.07	-1.42377
1899.32	0.461103
1899.57	1.40404
1899.82	0.462913
1900.07	0.461921
1900.31	-0.480091
1900.57	-1.42171
1900.81	-0.482183
1901.06	1.3977
1901.31	3.27774
1901.56	-1.42338
1901.81	-0.483535
1902.06	3.27624
1902.31	2.33606
1902.56	1.39597
1902.81	1.39491
1903.06	-0.490525
1903.31	2.32479
1903.55	1.38372
1903.8	-0.49614
1904.05	4.19825
1904.3	-0.497683
1904.55	1.38159
1904.8	1.38246
1905.05	0.446712
1905.3	2.32801
1905.55	3.26876
1905.79	-0.488043
1906.04	-1.42569
1906.29	-0.483312
1906.54	-1.42008
1906.79	0.464374
1907.04	-2.35262
1907.29	-1.40734
1907.54	1.42141
1907.79	-1.39858
1908.04	3.31312
1908.28	-0.451736
1908.53	-1.39224
1908.78	2.37629
1909.03	0.492381
1909.28	1.43316
1909.53	-2.33453
1909.78	0.491163
1910.03	-0.450253
1910.27	-2.33358
1910.52	1.43513
1910.77	-0.445468
1911.02	-1.38302
1911.27	-1.37878
1911.52	0.509869
1911.77	-0.429567
1912.02	-0.426266
1912.26	0.520234
1912.51	0.522349
1912.76	-0.420471
1913.01	1.46644
1913.26	1.46532
1913.51	0.521844
1913.76	-2.31079
1914	-0.426564
1914.25	0.514594
1914.5	0.512994
1914.75	-0.430579
1915	1.45461
1915.25	-1.37219
1915.49	0.516408
1915.74	0.520443
1915.99	4.29886
1916.24	2.41756
1916.49	-0.408731
1916.74	1.48716
1916.99	0.547388
1917.23	-0.395027
1917.48	0.550317
1917.73	-0.396559
1917.98	0.551675
1918.23	-0.388917
1918.48	-2.27588
1918.72	1.5081
1918.97	-1.32607
1919.22	1.51241
1919.47	0.56676
1919.72	-2.27132
1919.97	-0.381901
1920.21	-0.383126
1920.46	-1.32905
1920.71	1.50615
1920.96	-0.385206
1921.21	0.558087
1921.46	2.44553
1921.7	0.555133
1921.95	0.555502
1922.2	1.50188
1922.45	-1.3299
1922.7	1.50926
1922.94	2.46044
1923.19	-0.371909
1923.44	-0.367731
1923.69	-1.3095
1923.94	-0.358498
1924.19	1.53798
1924.43	-1.29983
1924.68	-0.350479
1924.93	-0.348228
1925.18	1.54842
1925.43	-2.23881
1925.67	-0.342446
1925.92	1.55527
1926.17	-0.33742
1926.42	-3.17796
1926.66	0.617815
1926.91	-0.325338
1927.16	1.57611
1927.41	-2.21433
1927.66	2.53502
1927.91	-0.308697
1928.15	1.5913
1928.4	1.59199
1928.65	3.4897
1928.9	0.64027
1929.15	1.58803
1929.39	-1.26045
1929.64	-1.26163
1929.89	2.5322
1930.14	-1.26264
1930.38	1.58244
1930.63	0.636701
1930.88	1.59183
1931.13	-0.298008
1931.37	-1.23763
1931.62	-0.274114
1931.87	-0.262093
1932.12	-1.20434
1932.37	-1.19626
1932.61	2.62443
1932.86	2.62628
1933.11	1.66331
1933.36	-0.242222
1933.61	-1.19572
1933.85	0.708693
1934.1	0.706097
1934.35	-0.249096
1934.6	-0.251201
1934.84	-1.2053
1935.09	0.696738
1935.34	-0.256505
1935.59	-0.254259
1935.83	2.60723
1936.08	-2.15139
1936.33	-1.1963
1936.58	1.66408
1936.82	0.714353
1937.07	2.62268
1937.32	-1.1866
1937.57	2.6301
1937.81	0.73001
1938.06	0.739882
1938.31	2.65297
1938.56	0.744169
1938.8	-1.16619
1939.05	-0.217439
1939.3	-1.17461
1939.55	-0.21172
1939.79	1.71009
1940.04	-1.15181
1940.29	-0.197531
1940.54	1.70574
1940.78	0.746025
1941.03	2.65402
1941.28	-2.10784
1941.52	-1.1502
1941.77	-2.10139
1942.02	-0.18758
1942.27	-0.183286
1942.51	0.776555
1942.76	1.73671
1943.01	-0.171086
1943.26	-2.08014
1943.5	-0.165037
1943.75	0.793538
1944	-1.11798
1944.24	-1.1177
1944.49	-1.11806
1944.74	-2.07443
1944.99	-1.11751
1945.23	-0.160526
1945.48	0.796117
1945.73	0.796411
1945.97	-1.11378
1946.22	3.67183
1946.47	-2.06346
1946.71	-2.05986
1946.96	-0.141626
1947.21	-0.136286
1947.46	0.828565
1947.7	-0.122443
1947.95	-2.03367
1948.2	-1.06898
1948.44	0.85597
1948.69	-1.05728
1948.94	-2.9729
1949.19	-0.0894403
1949.43	0.874004
1949.68	-1.04453
1949.93	-1.04313
1950.17	1.84259
1950.42	0.883878
1950.67	2.80091
1950.91	-0.0860329
1951.16	-1.0531
1951.41	1.81732
1951.65	0.851982
1951.9	-0.110252
1952.15	1.80524
1952.39	-0.109426
1952.64	0.852169
1952.89	-0.100445
1953.14	1.826
1953.38	-0.0832796
1953.63	0.881652
1953.88	-0.0734062
1954.12	-0.069685
1954.37	-0.0655088
1954.62	1.85977
1954.86	0.902637
1955.11	-1.01643
1955.36	-1.01424
1955.6	0.90996
1955.85	-1.9725
1956.1	-1.97298
1956.34	0.908845
1956.59	-0.052103
1956.84	-0.0522137
1957.08	-0.0533533
1957.33	0.90597
1957.58	-0.0556803
1957.82	-1.01727
1958.07	-1.01864
1958.31	-1.01979
1958.56	1.85858
1958.81	-0.060483
1959.05	-0.0588303
1959.3	2.82218
1959.55	-0.0554571
1959.79	-1.97347
1960.04	-1.97193
1960.29	-0.0505505
1960.53	-2.92889
1960.78	-0.0473585
1961.03	0.914885
1961.27	-0.0424376
1961.52	3.80057
1961.77	0.920192
1962.01	-0.039506
1962.26	0.921728
1962.5	-0.997809
1962.75	-0.0358305
1963	-0.0328236
1963.24	1.89228
1963.49	-0.0246172
1963.74	-3.86477
1963.98	-1.93987
1964.23	-0.0156174
1964.48	-1.93715
1964.72	-0.0130434
1964.97	-0.97218
1965.21	0.951946
1965.46	-0.00769043
1965.71	-0.0073328
1965.95	-0.00789165
1966.2	0.951373
1966.44	-0.0123539
1966.69	-1.93682
1966.94	0.941132
1967.18	-0.0211754
1967.43	1.89683
1967.68	-0.983042
1967.92	-1.94386
1968.17	2.85243
1968.41	0.933282
1968.66	-1.94448
1968.91	0.933408
1969.15	1.89562
1969.4	-0.0206327
1969.64	-0.978393
1969.89	-0.977769
1970.14	-2.8966
1970.38	-0.0205002
1970.63	0.936321
1970.87	-0.023634
1971.12	-1.94123
1971.37	1.89311
1971.61	-0.981558
1971.86	-0.0216532
1972.1	-0.019824
1972.35	-3.85192
1972.6	-0.972917
1972.84	-0.0108309
1973.09	-0.967043
1973.33	1.91279
1973.58	-0.00366974
1973.82	2.8756
1974.07	-0.00111103
1974.32	0.958646
1974.56	-0.000561714
1974.81	-0.960231
1975.05	0.956474
1975.3	3.83141
1975.55	-0.00400543
1975.79	-1.92119
1976.04	-0.00360489
1976.28	-0.00220871
1976.53	-0.959117
1976.77	-1.91646
1977.02	0.96104
1977.26	1.92057
1977.51	-1.91421
1977.76	0.00115776
1978	-0.957838
1978.25	0.000413895
1978.49	-0.000683784
1978.74	-0.958508
1978.98	2.87299
1979.23	0.95818
1979.48	0.000742912
1979.72	0.956724
1979.97	-0.959322
1980.21	0.952577
1980.46	1.90621
1980.7	-0.965324
1980.95	-0.965019
1981.19	0.948167
1981.44	-0.00865364
1981.69	0.947461
1981.93	-1.92151
1982.18	-0.966818
1982.42	-0.0131435
1982.67	-0.0127935
1982.91	-2.87851
1983.16	1.90295
1983.4	-4.78557
1983.65	-1.91441
1983.89	0.955886
1984.14	1.91256
1984.38	0.958667
1984.63	2.8677
1984.88	0.952376
1985.12	-0.00705528
1985.37	0.9436
1985.61	-1.92621
1985.86	-0.980623
1986.1	-0.987674
1986.35	0.911405
1986.59	-0.999411
1986.84	0.902044
1987.08	2.80424
1987.33	-1.00145
1987.57	-0.998257
1987.82	-0.0386229
1988.06	0.918283
1988.31	-0.0293522
1988.55	-0.0233965
1988.8	-0.959754
1989.04	-0.931321
1989.29	1.88343
1989.53	-0.916442
1989.78	-0.91665
1990.02	1.72589
1990.27	-1.81605
1990.52	-0.781672
1990.76	1.88714
1991.01	0.796377
1991.25	0.752558
1991.49	0.0467892
1991.74	-1.76286
1991.99	-2.59865
1992.23	1.33339
1992.47	0.736122
1992.72	-1.53973
1992.97	-0.0312653
1993.21	-0.209556
1993.45	-0.953905
1993.7	0.80332
1993.95	0.657056
1994.19	-2.04379
1994.43	2.22466
1994.68	-0.448353
1994.93	1.08735
1995.17	0.0260077
1995.41	-1.50463
1995.66	-1.39723
1995.9	-0.248055
1996.15	1.78655
1996.39	-1.87316
1996.64	0.870012
1996.88	-0.492328
1997.13	-0.78009
1997.37	0.595233
1997.62	0.213061
1997.86	0.780006
1998.11	-1.11675
1998.35	-0.444173
1998.6	-0.94226
1998.84	-0.219895
1999.09	-0.276721
1999.33	-0.140743
1999.57	-1.31216
1999.82	0.375619
2000.06	0.144532
2000.31	-2.14726
2000.55	0.669551
2000.8	-0.758998
2001.04	-0.759486
2001.29	1.10736
2001.53	1.09457
2001.78	0.784227
2002.02	2.52061
2002.27	0.823143
2002.51	1.17832
2002.75	0.684816
2003	-0.0166149
2003.24	-0.920437
2003.49	0.432298
2003.73	0.944574
2003.98	0.754411
2004.22	-0.0256062
2004.47	-0.0400906
2004.71	-0.149507
2004.95	1.0886
2005.2	0.457728
2005.44	-0.203224
2005.69	-1.14707
2005.93	1.67011
2006.18	0.407351
2006.42	-0.621707
2006.66	0.571666
2006.91	-1.12957
2007.15	-0.525172
2007.4	0.0544386
2007.64	0.324702
2007.89	0.939392
2008.13	0.637941
2008.38	-1.08415
2008.62	0.149831
2008.86	1.29744
2009.11	-0.552169
2009.35	0.291734
2009.6	0.418057
2009.84	-0.911957
2010.08	-0.732901
2010.33	-0.411649
2010.57	-0.429899
2010.82	-1.73764
2011.06	-1.30712
2011.3	1.62241
2011.55	-0.539572
2011.79	-3.43189
2012.04	-0.508974
2012.18	2.27438
2012.43	1.33877
2012.68	-2.41258
2012.93	-1.47125
2013.17	-0.531851
2013.42	-1.4691
2013.67	1.36122
2013.91	-4.27435
2014.16	-1.4542
2014.41	0.424589
2014.66	0.422503
2014.9	1.35865
2015.15	1.35415
2015.4	-0.52797
2015.64	-1.46992
2015.89	-0.535411
2016.14	4.1475
2016.38	-0.54335
2016.63	1.32842
2016.88	0.390756
2017.13	0.390347
2017.37	-0.54557
2017.62	-0.545175
2017.87	1.32828
2018.11	1.32979
2018.36	0.39514
2018.61	0.396255
2018.86	-0.539993
2019.1	2.26943
2019.35	-0.540995
2019.6	-0.54244
2019.84	-2.41662
2020.09	0.388506
2020.34	1.32183
2020.58	2.2549
2020.83	0.382052
2021.08	0.379922
2021.32	2.24754
2021.57	0.374762
2021.82	-2.43155
2022.06	-2.43438
2022.31	-0.569986
2022.56	-0.572949
2022.8	1.29031
2023.05	-0.579165
2023.3	-2.44334
2023.54	0.36021
2023.79	-0.564388
2024.04	0.38032
2024.28	-0.542322
2024.53	-3.34105
2024.78	-0.533893
2025.02	3.19985
2025.27	0.383223
2025.52	-2.44581
2025.76	2.24421
2026.01	2.30233
2026.26	-1.46289
2026.5	2.29295
2026.75	-0.535703
2027	0.384451
2027.24	0.368191
2027.49	0.368688
2027.74	2.21996
2027.98	-0.566289
2028.23	0.376593
2028.48	2.24101
2028.72	0.375751
2028.97	2.24237
2029.22	-0.552466
2029.46	-1.48132
2029.71	5.06159
2029.96	1.33129
2030.2	0.40132
2030.45	-1.46487
2030.69	-1.46092
2030.94	0.413367
2031.19	-1.46288
2031.43	-1.46915
2031.68	2.25104
2031.93	0.379792
2032.17	1.31981
2032.42	-2.40912
2032.66	0.399273
2032.91	-0.524605
2033.16	1.35349
2033.4	0.420058
2033.65	0.41252
2033.9	1.34709
2034.14	1.35192
2034.39	0.417274
2034.63	-0.517835
2034.88	0.416373
2035.13	-1.45447
2035.37	3.21775
2035.62	0.412005
2035.87	-0.524158
2036.11	-1.46002
2036.36	-0.527533
2036.6	-1.46327
2036.85	3.20329
2037.1	-0.534816
2037.34	-0.53799
2037.59	-1.47392
2037.83	-2.40916
2038.08	-3.34366
2038.33	0.384337
2038.57	0.383342
2038.82	0.382912
2039.06	0.381524
2039.31	-2.41589
2039.56	-0.554022
2039.8	0.376492
2040.05	0.376776
2040.3	-1.48552
2040.54	2.24563
2040.79	-0.545126
2041.03	-1.47233
2041.28	2.26212
2041.52	0.396026
2041.77	-1.47216
2042.02	1.32001
2042.26	-1.48651
2042.51	0.388661
2042.75	-2.40236
2043	-1.45513
2043.25	-1.43538
2043.49	2.29967
2043.74	-0.518766
2043.98	0.405068
2044.23	-1.4625
2044.47	1.33439
2044.72	-0.541288
2044.97	-0.545052
2045.21	2.2519
2045.46	1.32051
2045.7	-1.47547
2045.95	-1.47424
2046.19	3.19213
2046.44	-1.46873
2046.69	0.400852
2046.93	-1.46118
2047.18	1.34347
2047.42	0.413579
2047.67	-0.518184
2047.91	2.28537
2048.16	-3.32067
2048.41	2.28164
2048.65	1.34341
2048.9	-0.52481
2049.14	0.409106
2049.39	1.34479
2049.63	-2.3902
2049.88	2.28111
2050.12	-0.519131
2050.37	-1.45116
2050.62	2.29011
2050.86	-0.507925
2051.11	0.429957
2051.35	-1.43906
2051.6	-0.50326
2051.84	-2.37456
2052.09	-1.43993
2052.33	1.36534
2052.58	-1.44393
2052.82	1.35937
2053.07	-0.511423
2053.31	1.35691
2053.56	-0.514586
2053.8	0.41893
2054.05	0.418453
2054.3	-0.515985
2054.54	1.3543
2054.79	0.420777
2055.03	-1.44755
2055.28	0.424154
2055.52	2.29821
2055.77	0.430048
2056.01	1.36852
2056.26	-0.501471
2056.5	-0.501038
2056.75	-0.50079
2056.99	0.435619
2057.24	1.36954
2057.48	-2.37686
2057.73	2.30028
2057.97	-1.44223
2058.22	-1.44093
2058.46	-0.503913
2058.71	0.432459
2058.95	-2.37659
2059.2	-0.504158
2059.45	-3.31297
2059.69	0.433413
2059.94	0.434752
2060.18	-1.43695
2060.43	-1.43546
2060.67	-1.43444
2060.92	-0.49648
2061.16	-0.49599
2061.4	0.441782
2061.65	-0.494835
2061.9	-1.4312
2062.14	0.446312
2062.39	-2.3645
2062.63	-1.42372
2062.88	3.27172
2063.12	1.39675
2063.37	1.39819
2063.61	0.459255
2063.86	0.459664
2064.1	2.33918
2064.34	-3.29628
2064.59	-1.4169
2064.83	0.463465
2065.08	-0.475095
2065.32	0.465344
2065.57	0.465444
2065.81	0.466393
2066.06	-1.41405
2066.3	1.40342
2066.55	0.458846
2066.79	0.452148
2067.04	-0.490972
2067.28	0.448218
2067.53	-0.487068
2067.77	-0.481527
2068.02	-0.475859
2068.26	-0.476611
2068.51	2.33954
2068.75	-0.470405
2069	0.477751
2069.24	-1.40731
2069.48	0.473942
2069.73	0.472372
2069.97	2.35328
2070.22	0.468909
2070.46	0.467183
2070.71	0.466478
2070.95	-0.475684
2071.2	-0.476115
2071.44	3.29093
2071.69	-2.35854
2071.93	-0.472619
2072.18	-0.469482
2072.42	2.3636
2072.66	-2.34632
2072.91	0.487868
2073.15	-0.45446
2073.4	-0.455172
2073.64	-1.39995
2073.89	-0.458377
2074.13	-0.462219
2074.38	0.477192
2074.62	-2.35984
2074.87	2.35209
2075.11	1.40921
2075.35	-0.475515
2075.6	1.41114
2075.84	0.467521
2076.09	-3.30648
2076.33	0.469398
2076.58	-0.469337
2076.82	0.476377
2077.06	-0.467343
2077.31	-0.466715
2077.55	-1.41134
2077.8	3.3126
2078.04	2.36438
2078.29	1.41682
2078.53	1.41476
2078.77	1.41317
2079.02	2.35555
2079.26	-0.479352
2079.51	2.35484
2079.75	-0.480774
2080	1.40794
2080.24	-1.42893
2080.48	0.458874
2080.73	0.456569
2080.97	0.45484
2081.22	-2.38147
2081.46	2.34139
2081.7	0.449934
2081.95	1.39364
2082.19	1.39209
2082.44	0.445197
2082.68	1.38857
2082.93	-2.39287
2083.17	-0.501354
2083.41	-1.44466
2083.66	-2.38929
2083.9	-0.498101
2084.14	1.39369
2084.39	2.34049
2084.63	1.39411
2084.88	1.39228
2085.12	-1.44856
2085.36	-0.503806
2085.61	-3.34458
2085.85	0.440047
2086.1	-1.4544
2086.34	5.17227
2086.58	1.38598
2086.83	-0.506537
2087.07	1.38751
2087.32	1.3862
2087.56	-0.509552
2087.8	-0.510451
2088.05	0.436422
2088.29	-2.40716
2088.54	1.38303
2088.78	-0.511569
2089.02	0.438374
2089.27	-0.507965
2089.51	2.34081
2089.75	-0.503685
2090	1.39683
2090.24	1.39838
2090.48	2.35001
2090.73	-0.499138
2090.97	1.4023
2091.22	-0.498476
2091.46	-0.499811
2091.7	1.39944
2091.95	-3.3571
2092.19	-1.45885
2092.43	1.38839
2092.68	1.38331
2092.92	1.37873
2093.17	0.424463
2093.41	-1.47906
2093.65	-1.48197
2093.9	-1.48486
2094.14	-0.539018
2094.38	0.405614
2094.63	-1.49864
2094.87	0.396448
2095.11	0.393154
2095.36	-0.559166
2095.6	-0.563799
2095.84	-0.566303
2096.09	-1.51826
2096.33	0.376532
2096.57	0.373276
2096.82	0.370355
2097.06	-0.581183
2097.3	0.365587
2097.55	0.363685
2097.79	-1.53621
2098.03	-0.586458
2098.28	1.31272
2098.52	1.31198
2098.76	0.360489
2099.01	-1.54182
2099.25	0.35465
2099.5	0.352026
2099.74	1.29833
2099.98	0.343629
2100.22	-1.56099
2100.47	-1.56535
2100.71	2.22873
2100.95	0.326373
2101.2	-0.625549
2101.44	3.16982
2101.68	0.321119
2101.93	0.320344
2102.17	-0.630403
2102.41	1.26871
2102.66	1.2691
2102.9	-0.631482
2103.14	1.26788
2103.39	0.315908
2103.63	2.21495
2103.87	0.311224
2104.12	1.26019
2104.36	0.307119
2104.6	1.25335
2104.85	-0.653559
2105.09	0.290363
2105.33	-1.61669
2105.57	-0.673276
2105.82	-3.52802
2106.06	0.265769
2106.3	1.21251
2106.55	2.16248
2106.79	-1.63671
2107.03	0.260189
2107.27	0.257017
2107.52	1.20376
2107.76	0.250493
2108	0.247268
2108.25	-1.65608
2108.49	-1.66009
2108.73	2.13424
2108.98	-0.719948
2109.22	-0.724061
2109.46	1.17169
2109.7	-1.67951
2109.95	1.16793
2110.19	0.216303
2110.43	2.11646
2110.68	3.06694
2110.92	0.213861
2111.16	-0.740592
2111.4	-0.745254
2111.65	-0.74908
2111.89	-0.752032
2112.13	1.14569
2112.38	0.191138
2112.62	0.186438
2112.86	0.181798
2113.1	-0.773035
2113.35	-1.72899
2113.59	2.06416
2113.83	-0.790092
2114.07	0.15525
2114.32	1.10065
2114.56	-1.75137
2114.8	1.09267
2115.04	2.03612
2115.29	-3.66564
2115.53	2.97117
2115.77	-1.78108
2116.01	-1.78762
2116.26	-0.845581
2116.5	1.99226
2116.74	-0.858452
2116.99	1.03084
2117.23	2.92004
2117.47	0.0726395
2117.71	1.96427
2117.96	1.0152
2118.2	1.01293
2118.44	1.01223
2118.68	-0.88445
2118.92	-1.83385
2119.17	1.95948
2119.41	-1.83679
2119.65	0.0592222
2119.9	0.0572309
2120.14	-0.894283
2120.38	-0.897082
2120.62	1.94778
2120.86	0.993408
2121.11	0.987856
2121.35	-1.86575
2121.59	0.0249596
2121.83	0.015583
2122.08	0.00489235
2122.32	-1.90058
2122.56	1.88022
2122.8	-0.969505
2123.04	-0.97738
2123.29	-0.0384874
2123.53	-0.991734
2123.77	-0.0525255
2124.01	-1.00543
2124.26	0.878819
2124.5	2.76441
2124.74	2.75938
2124.98	-0.0819378
2125.22	-1.97826
2125.47	0.852483
2125.71	-1.04219
2125.95	-0.101005
2126.19	-0.105656
2126.44	1.77935
2126.68	-0.116206
2126.92	-0.121071
2127.16	-1.071
2127.4	-1.07603
2127.65	0.808562
2127.89	-1.08676
2128.13	-0.147901
2128.37	-1.09879
2128.61	-0.160717
2128.86	2.6658
2129.1	-1.11695
2129.34	-2.06674
2129.58	-0.185575
2129.82	2.63851
2130.06	0.745213
2130.31	-1.1467
2130.55	2.62397
2130.79	-1.15447
2131.03	-2.10241
2131.27	0.724818
2131.52	-1.16655
2131.76	2.60368
2132	-3.06362
2132.24	0.706395
2132.48	-0.242406
2132.73	0.695361
2132.97	-1.19841
2133.21	-3.09296
2133.45	2.55621
2133.69	-0.279093
2133.94	-1.226
2134.18	0.655697
2134.42	0.651381
2134.66	-0.294583
2134.9	-2.18246
2135.14	0.641747
2135.39	0.632984
2135.63	-2.20261
2135.87	0.622537
2136.11	1.56582
2136.35	-4.09454
2136.59	-1.27463
2136.84	-0.342439
2137.08	-1.29183
2137.32	-3.18278
2137.56	-0.36275
2137.8	-0.368955
2138.04	0.567075
2138.28	0.561253
2138.53	-1.32696
2138.77	-0.392312
2139.01	-1.34163
2139.25	0.535001
2139.49	-1.35242
2139.74	-0.413429
2139.98	-1.35752
2140.22	0.532048
2140.46	0.523538
2140.7	0.484447
2140.94	-0.464301
2141.18	-0.465957
2141.43	0.473895
2141.67	1.41471
2141.91	-0.468076
2142.15	0.460372
2142.39	-1.42473
2142.63	-0.488503
2142.87	-0.49401
2143.12	-0.49999
2143.36	1.37416
2143.6	0.428009
2143.84	-1.4579
2144.08	-0.524166
2144.32	1.34847
2144.56	1.34145
2144.8	-0.544292
2145.05	-0.550662
2145.29	1.32135
2145.53	1.31464
2145.77	-2.44843
2146.01	2.23925
2146.25	1.29233
2146.49	0.345263
2146.73	2.21043
2146.98	-1.54989
2147.22	-0.620756
2147.46	2.18365
2147.7	1.23954
2147.94	-1.5777
2148.18	-0.64432
2148.42	0.290573
2148.66	0.287037
2148.9	2.16004
2149.15	1.21822
2149.39	1.21585
2149.63	-0.667172
2149.87	-1.6118
2150.11	1.1935
2150.35	1.18575
2150.59	-0.695222
2150.83	0.235831
2151.07	-1.64576
2151.31	1.15676
2151.56	-0.726597
2151.8	-1.67369
2152.04	-0.7479
2152.28	-0.759362
2152.52	0.166267
2152.76	-2.64747
2153	0.147856
2153.24	1.07424
2153.48	0.133229
2153.72	2.93
2153.97	0.122044
2154.21	-0.817197
2154.45	-1.75552
2154.69	0.109786
2154.93	0.107418
2155.17	1.03952
2155.41	1.0352
2155.65	0.0953274
2155.89	0.0896502
2156.13	1.95252
2156.37	0.0763969
2156.61	-0.865381
2156.86	-0.873207
2157.1	0.0522938
2157.34	-1.82393
2157.58	-0.898355
2157.82	0.960344
2158.06	0.0202198
2158.3	0.947473
2158.54	-2.79125
2158.78	-2.79754
2159.02	0.928532
2159.26	1.85629
2159.5	-0.0146103
2159.74	0.913008
2159.98	-0.0262079
2160.22	-1.8987
2160.47	-0.972653
2160.71	-0.046648
2160.95	1.81147
2161.19	0.872107
2161.43	-1.9325
2161.67	-1.94104
2161.91	-1.01665
2162.15	1.77364
2162.39	1.77037
2162.63	-1.96187
2162.87	-1.03496
2163.11	-0.108045
2163.35	-1.97826
2163.59	0.81022
2163.83	-0.128712
2164.07	-0.136672
2164.31	-1.07526
2164.55	-0.152408
2164.79	-1.09259
2165.03	1.68676
2165.27	1.67416
2165.51	-1.12294
2165.76	-1.12848
2166	1.65625
2166.24	0.723435
2166.48	-0.208567
2166.72	0.720639
2166.96	0.720861
2167.2	-0.209232
2167.44	1.65158
2167.68	0.716818
2167.92	0.710827
2168.16	-0.228204
2168.4	3.48914
2168.64	-0.245354
2168.88	-1.19037
2169.12	-0.271204
2169.36	-0.279191
2169.6	0.642426
2169.84	-0.293882
2170.08	1.5587
2170.32	1.55339
2170.56	2.47716
2170.8	-1.24325
2171.04	-0.317305
2171.28	3.39645
2171.52	-2.18403
2171.76	-0.330062
2172	0.594248
2172.24	-0.340386
2172.48	-1.27569
2172.72	-0.352317
2172.96	0.571417
2173.2	-0.363547
2173.44	-0.369643
2173.68	0.551942
2173.92	-0.382998
2174.16	-1.3169
2174.4	0.536401
2174.64	0.531786
2174.88	0.526397
2175.12	-0.406812
2175.36	0.51593
2175.6	1.43547
2175.84	-0.42988
2176.08	-0.435304
2176.32	-2.29649
2176.56	0.484303
2176.8	-0.448946
2177.04	-0.45388
2177.28	-0.458845
2177.52	0.464345
2177.76	0.458512
2178	0.452571
2178.24	-0.481015
2178.48	1.36987
2178.72	2.29125
2178.96	1.35627
2179.2	0.422674
2179.44	3.1995
2179.68	2.26508
2179.92	1.3311
2180.16	-0.532037
2180.4	2.24211
2180.64	-1.47612
2180.88	-0.55701
2181.12	0.362693
2181.35	0.355599
2181.59	-1.50303
2181.83	2.19889
2182.07	0.342569
2182.31	2.19253
2182.55	1.26233
2182.79	0.3327
2183.03	-3.37777
2183.27	-0.598471
2183.51	0.326738
2183.75	4.0372
2183.99	-1.52945
2184.23	0.326467
2184.47	0.326366
2184.71	-2.46097
2184.95	0.321754
2185.19	1.24435
2185.43	2.16556
2185.67	1.22924
2185.91	1.22119
2186.15	-0.643177
2186.38	0.276084
2186.62	1.19393
2186.86	2.1118
2187.1	-0.676039
2187.34	1.17264
2187.58	1.16862
2187.82	1.16538
2188.06	-0.691751
2188.3	3.93953
2188.54	-0.699845
2188.78	0.224264
2189.02	-0.70608
2189.26	1.14576
2189.5	2.07032
2189.74	0.212274
2189.97	3.92159
2190.21	0.208913
2190.45	2.06332
2190.69	-0.722082
2190.93	1.13702
2191.17	1.14089
2191.41	-0.716832
2191.65	-0.718336
2191.89	-0.723043
2192.13	0.200479
2192.37	0.194753
2192.61	1.11754
2192.85	2.96813
2193.08	-4.47185
2193.32	0.162933
2193.56	-0.774487
2193.8	0.145789
2194.04	1.06653
2194.28	-0.79559
2194.52	3.83579
2194.76	1.04907
2195	2.90073
2195.24	2.89854
2195.47	1.97097
2195.71	1.04336
2195.95	2.90103
2196.19	0.11729
2196.43	2.90498
2196.67	2.90705
2196.91	2.9093
2197.15	-0.8062
2197.39	1.05896
2197.63	1.99395
2197.86	1.06591
2198.1	1.99886
2198.34	1.99941
2198.58	-0.805371
2198.82	0.107006
2199.06	1.00029
2199.3	0.971957
2199.54	0.976627
2199.78	-0.857383
2200.01	3.80287
2200.25	5.65371
2200.49	0.996712
2200.73	2.86368
2200.97	1.05813
2201.21	2.89813
2201.45	4.75733
2201.69	2.89323
2201.92	1.94569
2202.16	2.85767
2202.4	1.9092
2202.64	0.965775
2202.88	1.8895
2203.12	0.956556
2203.36	2.81684
2203.59	3.74499
2203.83	0.945045
2204.07	-0.916685
2204.31	0.941867
2204.55	0.941658
2204.79	-1.84877
2205.03	2.80306
2205.27	2.80385
2205.5	-0.918783
2205.74	0.942759
2205.98	2.80436
2206.22	1.87203
2206.46	1.87013
2206.7	2.79862
2206.93	2.79508
2207.17	-0.00134182
2207.41	0.929149
2207.65	-0.00301266
2207.89	2.79183
2208.13	0.928124
2208.37	2.79189
2208.6	1.85992
2208.84	0.928415
2209.08	1.86193
2209.32	2.79456
2209.56	0.927735
2209.8	0.923947
2210.03	-0.0130787
2210.27	2.78059
2210.51	-0.95467
2210.75	-0.0277557
2210.99	0.902725
2211.23	2.76845
2211.47	-0.958513
2211.7	-0.0216846
2211.94	2.77781
2212.18	1.84348
2212.42	-0.0249357
2212.66	1.84065
2212.89	1.83875
2213.13	-0.964478
2213.37	0.900325
2213.61	3.69852
2213.85	-0.0389919
2214.09	-0.0418749
2214.32	-0.0441437
2214.56	0.887839
2214.8	-1.9145
2215.04	3.68534
2215.28	3.68299
2215.51	0.880626
2215.75	1.81398
2215.99	1.81439
2216.23	1.81547
2216.47	0.882513
2216.71	1.81692
2216.94	-0.0519047
2217.18	1.81711
2217.42	2.74957
2217.66	-0.0567923
2217.9	0.875419
2218.13	-0.0623646
2218.37	0.866564
2218.61	2.72838
2218.85	1.78884
2219.08	-1.01696
2219.32	2.71348
2219.56	1.77783
2219.8	-0.0896025
2220.04	1.77842
2220.27	1.77954
2220.51	0.847029
2220.75	0.849472
2220.99	1.78736
2221.23	1.79139
2221.46	1.7951
2221.7	0.862874
2221.94	0.86528
2222.18	-1.00384
2222.42	-0.0654936
2222.65	0.873975
2222.89	-0.0598469
2223.13	-0.0577087
2223.37	1.81833
2223.6	-0.0539761
2223.84	1.8227
2224.08	-0.049654
2224.32	1.82708
2224.55	0.890613
2224.79	-0.0468874
2225.03	-0.985824
2225.27	0.887643
2225.5	1.82326
2225.74	2.75887
2225.98	2.75716
2226.22	1.81801
2226.46	0.879795
2226.69	3.69471
2226.93	-3.80391
2227.17	-0.987237
2227.41	1.82979
2227.64	0.894153
2227.88	2.77444
2228.12	-0.0386934
2228.36	0.903665
2228.59	-0.032011
2228.83	-0.968813
2229.07	-0.966182
2229.31	2.79616
2229.54	0.919357
2229.78	-1.89866
2230.02	0.925261
2230.26	0.928155
2230.49	-0.00973415
2230.73	1.87523
2230.97	1.87774
2231.21	0.938508
2231.44	0.93779
2231.68	-0.945808
2231.92	0.934714
2232.16	1.87286
2232.39	-0.954775
2232.63	0.922297
2232.87	0.922731
2233.11	0.923742
2233.34	0.924998
2233.58	-0.0141973
2233.82	1.86799
2234.05	0.928761
2234.29	0.93305
2234.53	0.937121
2234.77	0.943974
2235	1.89327
2235.24	1.90065
2235.48	0.963826
2235.72	1.91164
2235.95	1.91774
2236.19	3.81156
2236.43	0.040287
2236.66	2.86998
2236.9	0.98186
2237.14	2.86434
2237.37	0.0323296
2237.61	1.9168
2237.85	2.86769
2238.09	2.87643
2238.32	1.93526
2238.56	0.994016
2238.8	-1.83443
2239.04	1.94255
2239.27	1.94532
2239.51	0.0607557
2239.75	1.00809
2239.98	1.95402
2240.22	1.01072
2240.46	2.89793
2240.69	0.0652533
2240.93	-0.878169
2241.17	-0.877049
2241.4	0.0687227
2241.64	1.96043
2241.88	-0.86521
2242.11	1.0315
2242.35	-0.850341
2242.59	0.100164
2242.83	0.105103
2243.06	2.94688
2243.3	2.95266
2243.54	3.90375
2243.77	2.01575
2244.01	-2.71035
2244.25	0.132625
2244.48	4.86847
2244.72	-1.75363
2244.96	-0.805126
2245.19	-0.803639
2245.43	2.03682
2245.67	-1.74719
2245.91	-0.799335
2246.14	2.04088
2246.38	1.09641
2246.61	-1.7374
2246.85	1.10633
2247.09	0.16229
2247.32	2.05572
2247.56	1.1088
2247.8	0.162041
2248.03	0.161037
2248.27	-0.784737
2248.51	0.161395
2248.74	0.163312
2248.98	0.166751
2249.22	-1.7198
2249.45	-0.76898
2249.69	3.02068
2249.93	2.08334
2250.16	-0.744391
2250.4	1.15881
2250.64	1.16693
2250.87	2.1218
2251.11	3.07622
2251.35	2.13507
2251.58	-0.703623
2251.82	4.04105
2252.06	-0.697893
2252.29	2.15065
2252.53	1.20614
2252.77	-1.63435
2253	-0.681923
2253.24	-0.675884
2253.48	1.2278
2253.71	0.285672
2253.95	0.291941
2254.18	0.298409
2254.42	-3.49232
2254.66	2.20996
2254.89	-2.53183
2255.13	-0.627957
2255.37	-0.623312
2255.6	-0.618349
2255.84	3.18642
2256.08	3.19319
2256.31	0.349802
2256.55	-0.594632
2256.78	0.361106
2257.02	1.31763
2257.26	-0.577301
2257.49	0.379118
2257.73	-0.565692
2257.96	1.34271
2258.2	0.401304
2258.44	-3.39637
2258.67	-1.48829
2258.91	5.17776
2259.15	-1.47708
2259.38	1.38386
2259.62	-0.51275
2259.85	0.447182
2260.09	2.35999
2260.33	-0.487982
2260.56	0.474294
2260.8	0.484731
2261.03	0.495963
2261.27	0.506975
2261.51	1.47182
2261.74	-0.427279
2261.98	-0.418517
2262.21	-0.410274
2262.45	0.552794
2262.69	-0.396593
2262.92	-1.34594
2263.16	-2.29689
2263.39	-0.384338
2263.63	-2.29201
2263.87	-0.380692
2264.1	-2.28718
2264.34	-1.32966
2264.57	0.581919
2264.81	0.585022
2265.05	0.587172
2265.28	-1.31695
2265.52	2.50182
2265.75	1.55457
2265.99	-2.2519
2266.22	-0.335638
2266.46	0.628367
2266.7	-1.27005
2266.93	3.51362
2267.17	-1.24908
2267.4	-1.23855
2267.64	1.63684
2267.87	0.689368
2268.11	0.699036
2268.35	0.708095
2268.58	-1.196
2268.82	-1.18781
2269.05	-0.222258
2269.29	-0.214355
2269.53	-0.207619
2269.76	-1.15724
2270	1.72034
2270.23	-1.14271
2270.47	-0.178491
2270.7	-2.08504
2270.94	-3.03473
2271.18	-0.156254
2271.41	-1.10603
2271.65	0.815843
2271.88	0.823474
2272.12	1.78878
2272.35	2.75395
2272.59	0.847167
2272.82	0.853498
2273.06	-0.0948334
2273.3	-0.0842113
2273.53	-0.0735025
2273.77	1.8535
2274	-0.0529661
2274.24	-2.91858
2274.47	-0.0303879
2274.71	-0.977011
2274.94	-0.96423
2275.18	0.00932884
2275.41	0.0189695
2275.65	-0.932994
2275.88	2.91641
2276.12	-2.83939
2276.36	1.96917
2276.59	1.01354
2276.83	1.01381
2277.06	0.0571804
2277.3	-1.85777
2277.53	1.02387
2277.77	1.02844
2278	0.075079
2278.24	1.03996
2278.47	-0.8713
2278.71	-3.7402
2278.94	-0.855565
2279.18	1.07055
2279.41	-2.75432
2279.65	1.09186
2279.89	-1.77404
2280.12	0.155746
2280.36	1.1278
2280.59	2.10218
2280.83	-0.763432
2281.06	-0.749321
2281.3	1.18828
2281.53	1.20083
2281.77	2.17277
2282	0.26083
2282.24	-0.689754
2282.47	-0.680316
2282.71	1.25326
2282.94	-2.59052
2283.18	-1.62496
2283.41	0.306605
2283.65	-0.645726
2283.88	0.327082
2284.12	0.342615
2284.35	3.24577
2284.59	-0.595052
2284.82	0.378181
2285.06	-1.53587
2285.29	1.36201
2285.53	0.405028
2285.76	-0.551623
2286	2.34339
2286.23	2.34703
2286.47	0.424861
2286.7	1.39055
2286.94	0.431115
2287.17	-0.523602
2287.41	2.36782
2287.64	2.37679
2287.88	1.42476
2288.11	0.474535
2288.35	0.487468
2288.58	0.501583
2288.82	0.514039
2289.05	0.525715
2289.28	0.5374
2289.52	2.47521
2289.75	0.562148
2289.99	1.538
2290.22	-0.377047
2290.46	-0.365671
2290.69	2.53648
2290.93	0.619043
2291.16	0.627173
2291.4	3.52576
2291.63	-0.321835
2291.87	-0.315219
2292.1	-0.307905
2292.34	3.55194
2292.57	1.63284
2292.81	1.64
2293.04	2.61022
2293.28	-1.23425
2293.51	0.69402
2293.74	1.66466
2293.98	1.67546
2294.21	2.64952
2294.45	-0.225159
2294.68	-0.212475
2294.92	1.72698
2295.15	-1.14791
2295.39	-2.09899
2295.62	-1.12391
2295.86	1.77995
2296.09	2.75784
2296.32	-1.08627
2296.56	1.81933
2296.79	0.866047
2297.03	0.875482
2297.26	-0.0793905
2297.5	0.89455
2297.73	0.906001
2297.97	1.88333
2298.2	-0.0349817
2298.43	-0.988815
2298.67	-1.94341
2298.9	1.92771
2299.14	1.93698
2299.37	0.980216
2299.61	2.91918
2299.84	1.96425
2300.07	0.0434484
2300.31	-1.8777
2300.54	0.0620203
2300.78	0.0721569
2301.01	1.04855
2301.25	-0.869771
2301.48	2.03874
2301.71	0.119099
2301.95	-1.80061
2302.18	-0.822501
2302.42	0.154963
2302.65	0.16559
2302.89	1.14283
2303.12	0.188239
2303.35	1.16635
2303.59	0.210324
2303.82	4.08676
2304.05	1.19669
2304.29	3.13914
2304.52	1.21459
2304.76	1.22253
2304.99	2.19751
2305.23	-0.692685
2305.46	1.24825
2305.69	-0.674176
2305.93	2.23474
2306.16	0.314351
2306.4	-1.60641
2306.63	3.24014
2306.86	2.28841
2307.1	4.23624
2307.33	1.34566
2307.57	0.388479
2307.8	-0.569538
2308.03	0.406126
2308.27	2.34674
2308.5	-0.552217
2308.74	0.414871
2308.97	0.419589
2309.2	1.39102
2309.44	-1.49704
2309.67	5.26557
2309.91	1.41326
2310.14	1.4227
2310.37	2.39911
2310.61	-1.44758
2310.84	-0.467554
2311.07	0.511899
2311.31	3.42447
2311.54	0.539528
2311.78	-2.34648
2312.01	1.53596
2312.24	2.51554
2312.48	-0.380869
2312.71	1.55922
2312.94	0.598825
2313.18	2.53747
2313.41	1.57208
2313.65	-2.28575
2313.88	-3.24361
2314.11	1.59331
2314.35	3.53467
2314.58	1.61353
2314.81	3.55872
2315.05	1.63872
2315.28	-0.288858
2315.51	0.68375
2315.75	1.65652
2315.98	-1.23293
2316.22	1.66975
2316.45	1.67654
2316.68	1.68387
2316.92	1.69172
2317.15	3.63056
2317.38	0.745073
2317.62	1.71877
2317.85	-0.201053
2318.08	1.7401
2318.32	0.786003
2318.55	2.72847
2318.78	2.74065
2319.02	1.7878
2319.25	1.80112
2319.48	5.68014
2319.72	1.82365
2319.95	1.83143
2320.19	1.84054
2320.42	3.78369
2320.65	3.79306
2320.89	3.80254
2321.12	2.84432
2321.35	3.81872
2321.58	2.85915
2321.82	4.79668
2322.05	1.89998
2322.28	4.80069
2322.52	4.80442
2322.75	6.74003
2322.98	1.9167
2323.22	2.88661
2323.45	5.78599
2323.68	3.85987
2323.92	6.75765
2324.15	8.68969
2324.38	6.76384
2324.62	11.5887
2324.85	13.5197
2325.08	11.5964
2325.32	13.5326
2325.55	19.3232
2325.78	18.3673
2326.02	20.2954
2326.25	23.1865
2326.48	28.9633
2326.71	35.7085
2326.95	46.3077
2327.18	71.3674
2327.41	92.5586
2327.65	129.155
2327.88	162.855
2328.11	160.93
2328.35	111.833
2328.58	77.1817
2328.81	51.1917
2329.05	36.7594
2329.28	21.3377
2329.51	21.337
2329.75	16.5227
2329.98	13.6358
2330.21	12.6752
2330.44	8.82691
2330.68	7.86752
2330.91	4.02114
2331.14	4.98651
2331.38	4.9888
2331.61	3.06545
2331.84	2.10635
2332.07	3.07153
2332.31	3.07592
2332.54	5.96472
2332.77	2.1236
2333	4.05275
2333.24	2.13336
2333.47	3.09783
2333.7	2.13964
2333.94	5.02777
2334.17	3.10831
2334.4	3.11156
2334.63	1.19207
2334.87	3.11737
2335.1	2.15877
2335.33	2.16174
2335.56	-0.718968
2335.8	5.05097
2336.03	1.21025
2336.26	4.09745
2336.5	3.13929
2336.73	5.06415
2336.96	1.22113
2337.19	2.18316
2337.43	2.18325
2337.66	1.22254
2337.89	2.18228
2338.12	3.14056
2338.36	3.13758
2338.59	3.13354
2338.82	0.253172
2339.05	-1.66553
2339.29	5.04666
2339.52	1.21042
2339.75	3.12761
2339.98	1.21074
2340.22	1.21163
2340.45	1.21282
2340.68	-0.704091
2340.91	2.17177
2341.15	3.13118
2341.38	2.17416
2341.61	1.21639
2341.84	1.21619
2342.08	3.1325
2342.31	2.17227
2342.54	1.21129
2342.77	-1.66697
2343.01	0.246281
2343.24	0.243177
2343.47	-0.716207
2343.7	1.19737
2343.93	4.06828
2344.17	1.19309
2344.4	2.14799
2344.63	3.10353
2344.86	0.229932
2345.1	3.10133
2345.33	1.18601
2345.56	1.18495
2345.79	5.01324
2346.03	2.13624
2346.26	3.0885
2346.49	0.207722
2346.72	1.15573
2346.95	0.189372
2347.19	0.178212
2347.42	3.02974
2347.65	-0.809169
2347.88	-0.838694
2348.12	1.08326
2348.35	3.04006
2348.58	0.179154
2348.81	1.10272
2349.04	0.128284
2349.28	1.07915
2349.51	0.121104
2349.74	2.96968
2349.97	2.94961
2350.2	2.93265
2350.44	1.97842
2350.67	1.01824
2350.9	2.91409
2351.13	2.90792
2351.36	0.0432739
2351.6	0.992354
2351.83	1.94139
2352.06	-0.925054
2352.29	0.0195017
2352.52	2.8688
2352.76	0.954035
2352.99	-0.960789
2353.22	0.933449
2353.45	1.87249
2353.68	0.904961
2353.92	2.79325
2354.15	-0.0723553
2354.38	-1.03498
2354.61	2.75645
2354.84	-1.05828
2355.07	2.73182
2355.31	0.819106
2355.54	-0.142976
2355.77	2.69386
2356	1.73117
2356.23	0.768865
2356.46	2.65638
2356.7	-2.10627
2356.93	1.6784
2357.16	-0.235932
2357.39	0.697857
2357.62	1.63085
2357.86	0.665661
2358.09	0.649217
2358.32	-1.2643
2358.55	0.615211
2358.78	-1.29798
2359.01	-1.31528
2359.25	0.56149
2359.48	-2.29823
2359.71	-0.421921
2359.94	1.45351
2360.17	3.32842
2360.4	0.470899
2360.63	-2.38555
2360.87	3.27377
2361.1	0.417099
2361.33	-1.49368
2361.56	1.32471
2361.79	1.30504
2362.02	-1.55079
2362.26	3.15569
2362.49	-3.48215
2362.72	-1.61607
2362.95	2.13449
2363.18	0.220472
2363.41	-2.63146
2363.64	-0.764706
2363.88	2.0471
2364.11	1.08953
2364.34	0.133205
2364.57	0.118353
2364.8	2.93077
