#Acq. time (s)=	30
#Accumulations=	2
#Range (cm-¹)=	1200...2365
#Windows=	3
#Auto scanning=	Off
#Autofocus=	Off
#Macrospot=	Off
#AutoExposure=	Off
#Spike filter=	Multiple accum.
#Delay time (s)=	2
#Binning=	1
#Readout mode=	Signal
#DeNoise=	Off
#ICS correction=	On
#Dark correction=	Off
#Inst. Process=	Off
#Detector Gain=	Best Dynamic
#Detector ADC=	50 kHz HS
#Detector temperature (°C)=	-60.09
#Instrument=	LabRAM HR Evol
#Detector=	SIN-EM FIVIS
#Objective=	x100_VIS_LWD
#Grating=	1800 (450-850nm)
#ND Filter=	100%
#Laser=	532nm_Edge
#Hole=	49.98
#Temperature=	0
#Range=	Visible
#StageXY=	75x50mm Scan+
#StageZ=	Z motor
#X (µm)=	0
#Y (µm)=	0
#Z (µm)=	14.4
#Full time(mm:ss)=	3:22
#Project=	21_11_22
#Sample=	BU19w
#Site=	
#Title=	BU19w-D-FFore2-FI13-V_1800 (450-850nm)_532nm_Edge_100%_x100_VIS_LWD_H50um_30sX2
#Remark=	
#Date=	22.11.2021 14:06
#Acquired=	22.11.2021 14:06:00
#Base:Fit=	16.12.2021 17:39:50
#Base:Fit=	16.12.2021 17:40:55
#Base:Sub=	16.12.2021 17:40:56
1202.84	4.06729
1203.12	-4.55228
1203.4	1.85328
1203.67	-0.323694
1203.95	2.85957
1204.23	-2.52714
1204.51	-1.4815
1204.78	-0.435213
1205.06	0.612425
1205.34	1.65933
1205.62	0.563461
1205.9	-2.67073
1206.17	3.7217
1206.45	0.492579
1206.73	2.61269
1207.01	-1.68255
1207.29	-0.635088
1207.56	1.47511
1207.84	1.44715
1208.12	-1.78146
1208.39	0.327827
1208.67	-1.83033
1208.95	5.61001
1209.23	-5.07924
1209.51	1.29387
1209.78	-2.99129
1210.06	1.24736
1210.34	2.29161
1210.62	1.20847
1210.89	-0.940809
1211.17	-0.954273
1211.45	-0.966923
1211.72	0.0846653
1212	-2.05821
1212.28	2.18614
1212.56	5.36534
1212.84	5.35047
1213.11	-1.05574
1213.39	-1.07752
1213.67	-3.22849
1213.94	-0.0620308
1214.22	0.979845
1214.5	0.959721
1214.78	-0.122732
1215.05	-1.20266
1215.33	6.21075
1215.61	0.885248
1215.89	-2.3131
1216.16	1.91879
1216.44	0.844145
1216.72	-2.35221
1216.99	0.814234
1217.27	-0.257998
1217.55	2.91433
1217.83	-2.40038
1218.1	-1.35174
1218.38	-7.72833
1218.66	-2.44052
1218.93	0.72258
1219.21	-0.357117
1219.49	2.79815
1219.77	1.71527
1220.04	2.74972
1220.32	-0.44524
1220.6	-0.466064
1220.88	-4.71038
1221.15	2.66651
1221.43	0.538414
1221.71	1.58081
1221.98	3.67969
1222.26	1.55965
1222.54	0.499317
1222.81	2.60722
1223.09	1.54794
1223.37	2.59603
1223.64	1.531
1223.92	0.463457
1224.2	7.83991
1224.48	-1.67814
1224.75	3.56149
1225.03	-1.73265
1225.31	1.40396
1225.58	0.319321
1225.86	-1.81127
1226.14	1.33066
1226.41	4.5477
1226.69	2.5055
1226.97	-2.79151
1227.24	3.50062
1227.52	3.48154
1227.8	-0.73361
1228.07	0.302896
1228.35	6.54333
1228.63	1.28724
1228.9	0.231672
1229.18	2.32835
1229.46	0.21874
1229.73	2.31534
1230.01	3.36051
1230.29	1.25229
1230.56	1.24743
1230.84	2.29578
1231.12	-2.95782
1231.39	-4.00945
1231.67	3.34653
1231.95	1.24717
1232.22	1.24656
1232.5	3.34864
1232.78	0.195908
1233.05	-0.85548
1233.33	2.29627
1233.61	0.187523
1233.88	0.180702
1234.16	3.32557
1234.43	4.36337
1234.71	-1.95173
1234.99	0.136532
1235.26	1.17386
1235.54	0.112162
1235.82	5.34576
1236.09	-3.05039
1236.37	-3.05538
1236.65	0.085474
1236.92	-0.965969
1237.2	-0.968037
1237.47	1.12712
1237.75	0.0787621
1238.03	-0.968836
1238.3	1.12836
1238.58	-5.16354
1238.85	0.0718765
1239.13	0.0678177
1239.41	0.0674572
1239.68	-0.978664
1239.96	2.16871
1240.24	0.0771332
1240.51	0.0772629
1240.79	-3.06755
1241.06	1.12774
1241.34	0.0800152
1241.62	1.12686
1241.89	3.22111
1242.17	0.071619
1242.45	-2.03041
1242.72	4.2459
1243	3.18841
1243.27	2.13713
1243.55	-1.00432
1243.83	1.08997
1244.1	2.13779
1244.38	-1.00314
1244.65	-2.04924
1244.93	1.08952
1245.2	1.0813
1245.48	1.07585
1245.76	1.07588
1246.03	0.0332127
1246.31	0.0373955
1246.59	3.17595
1246.86	2.13076
1247.14	3.17907
1247.41	-4.14409
1247.69	1.07908
1247.96	1.07471
1248.24	-1.0187
1248.51	1.06859
1248.79	4.20001
1249.07	-2.06981
1249.34	0.0165806
1249.62	-2.07396
1249.89	1.05498
1250.17	0.00863647
1250.45	0.00857735
1250.72	-3.11901
1251	0.0187798
1251.27	0.0273895
1251.55	-3.09528
1251.82	-1.00079
1252.1	2.1356
1252.38	0.0529079
1252.65	1.10112
1252.93	0.0592289
1253.2	0.0640812
1253.48	-0.974291
1253.75	3.21174
1254.03	0.0840645
1254.3	-3.04645
1254.58	2.17577
1254.86	-1.99989
1255.13	1.13493
1255.41	4.26909
1255.68	-3.03746
1255.96	-0.952234
1256.23	1.1383
1256.51	1.14668
1256.78	-0.934214
1257.06	0.129469
1257.33	2.2149
1257.61	-1.96269
1257.88	-3.01135
1258.16	-4.05618
1258.44	6.37563
1258.71	-0.920406
1258.99	-2.97983
1259.26	-1.89805
1259.54	-0.817106
1259.81	0.185007
1260.09	3.28624
1260.36	0.139769
1260.64	2.26159
1260.91	1.2465
1261.19	2.32309
1261.46	6.53728
1261.74	1.29178
1262.01	4.42437
1262.29	1.29423
1262.56	1.29876
1262.84	4.43294
1263.11	6.52805
1263.39	2.35656
1263.66	2.36644
1263.94	3.42335
1264.21	6.57314
1264.49	2.40558
1264.76	4.51275
1265.04	-0.702391
1265.31	-2.77797
1265.59	2.47486
1265.86	3.53502
1266.14	2.49911
1266.41	1.46184
1266.69	4.61093
1266.96	-0.627207
1267.24	-1.67598
1267.51	4.60647
1267.79	1.46525
1268.06	4.60612
1268.34	3.5638
1268.61	3.56677
1268.89	7.76047
1269.16	2.54208
1269.44	5.69837
1269.71	-1.61323
1269.99	2.59162
1270.26	5.75033
1270.54	1.5739
1270.81	0.540512
1271.09	1.60405
1271.36	-1.53012
1271.64	1.62564
1271.91	1.63204
1272.18	2.68815
1272.46	3.74754
1272.74	4.80917
1273.01	2.72353
1273.28	3.78784
1273.56	2.7516
1273.83	2.76503
1274.11	1.72687
1274.38	3.84226
1274.66	0.705738
1274.93	-0.330536
1275.21	1.785
1275.48	3.90075
1275.76	1.81464
1276.03	-2.37996
1276.3	-2.36726
1276.58	1.84709
1276.85	3.9565
1277.13	11.3225
1277.4	2.91471
1277.68	1.87337
1277.95	0.831648
1278.23	2.95076
1278.5	4.02155
1278.77	7.19272
1279.05	2.98917
1279.32	1.94705
1279.6	7.22388
1279.87	1.96368
1280.15	1.95946
1280.42	5.09366
1280.69	7.18872
1280.97	10.3508
1281.24	8.26223
1281.52	14.6785
1281.79	17.8555
1282.07	25.2432
1282.34	38.918
1282.61	37.8475
1282.89	55.7525
1283.16	67.364
1283.44	72.6424
1283.71	71.5758
1283.99	52.6315
1284.26	41.0548
1284.53	22.1056
1284.81	16.8427
1285.08	10.5316
1285.36	7.38238
1285.63	7.39189
1285.9	3.19283
1286.18	4.25843
1286.45	2.16727
1286.73	3.23431
1287	2.19617
1287.28	-0.949751
1287.55	4.32672
1287.82	3.27847
1288.1	2.23195
1288.37	2.24019
1288.64	5.40825
1288.92	1.20322
1289.19	1.21179
1289.47	3.32896
1289.74	2.28352
1290.01	-1.92292
1290.29	-2.96642
1290.56	1.26331
1290.84	4.446
1291.11	1.30527
1291.38	3.42836
1291.66	3.43691
1291.93	-3.93712
1292.21	4.51167
1292.48	-0.741676
1292.75	5.61526
1293.03	0.365326
1293.3	2.50133
1293.57	2.51419
1293.85	-1.70402
1294.12	-2.75429
1294.4	1.47745
1294.67	1.48061
1294.94	-0.629562
1295.22	5.70867
1295.49	0.439068
1295.76	5.7275
1296.04	0.451561
1296.31	-1.65485
1296.58	2.57243
1296.86	1.52493
1297.13	3.64983
1297.4	0.494991
1297.68	3.67261
1297.95	-2.65464
1298.22	1.57666
1298.5	4.7543
1298.77	-1.56772
1299.04	1.61396
1299.32	0.569492
1299.59	2.69214
1299.87	-0.467993
1300.14	-1.51683
1300.41	0.601786
1300.69	4.82998
1300.96	1.66953
1301.23	0.623133
1301.51	1.68824
1301.78	-6.75057
1302.05	2.7587
1302.33	-1.45997
1302.6	1.70962
1302.87	3.82257
1303.15	0.65921
1303.42	-0.392267
1303.69	-4.6044
1303.97	2.78649
1304.24	-1.42053
1304.51	-2.46528
1304.79	-2.45662
1305.06	1.77075
1305.33	2.83667
1305.6	-0.320673
1305.88	0.744146
1306.15	1.81258
1306.42	-0.284555
1306.7	-1.32674
1306.97	1.85108
1307.24	-2.36185
1307.52	0.81119
1307.79	1.87526
1308.06	3.99601
1308.34	0.840624
1308.61	-2.31543
1308.88	1.91724
1309.15	-1.23592
1309.43	-5.44635
1309.7	1.95575
1309.97	-1.20357
1310.25	-5.4219
1310.52	-0.135601
1310.79	1.98237
1311.06	1.98899
1311.34	-0.113419
1311.61	2.00799
1311.88	2.0196
1312.16	-3.24699
1312.43	5.2122
1312.7	-4.27954
1312.98	-2.15523
1313.25	7.35886
1313.52	1.02867
1313.79	-1.07592
1314.07	-6.34824
1314.34	-0.00321198
1314.61	0.00901222
1314.89	-1.03577
1315.16	3.20022
1315.43	2.15388
1315.7	1.10686
1315.98	2.1722
1316.25	4.29304
1316.52	6.41339
1316.79	-2.03015
1317.07	-2.02007
1317.34	0.10203
1317.61	2.22223
1317.88	3.28322
1318.16	3.2854
1318.43	2.22996
1318.7	4.33999
1318.97	-1.98829
1319.25	5.39753
1319.52	2.23728
1319.79	-4.08607
1320.06	-0.917152
1320.34	1.19388
1320.61	1.20582
1320.88	5.43332
1321.16	-2.99311
1321.43	-4.04003
1321.7	1.24125
1321.97	-2.96935
1322.25	1.25955
1322.52	5.47855
1322.79	-0.850096
1323.06	1.2508
1323.33	-0.86693
1323.61	2.28974
1323.88	0.190695
1324.15	1.25853
1324.42	0.233431
1324.7	-0.802299
1324.97	6.59126
1325.24	0.287119
1325.51	0.30595
1325.79	0.32299
1326.06	1.39025
1326.33	2.44857
1326.6	4.57052
1326.87	-1.75266
1327.15	5.63814
1327.42	-1.74146
1327.69	2.48073
1327.96	2.48209
1328.23	0.37351
1328.51	-1.73583
1328.78	1.42087
1329.05	0.366007
1329.32	-1.7386
1329.6	2.47099
1329.87	3.52101
1330.14	-0.687904
1330.41	4.56746
1330.68	0.362356
1330.96	1.41313
1331.23	-2.78792
1331.5	-2.78633
1331.77	-1.73464
1332.04	1.41643
1332.32	2.46815
1332.59	0.372145
1332.86	1.42407
1333.13	-2.76798
1333.4	-0.666683
1333.67	1.43441
1333.95	-2.75464
1334.22	0.395432
1334.49	-0.647448
1334.76	0.405458
1335.03	-1.68865
1335.3	-0.639708
1335.58	1.45877
1335.85	0.414577
1336.12	0.418776
1336.39	2.51942
1336.66	4.62189
1336.94	3.58386
1337.21	-1.64406
1337.48	0.45853
1337.75	1.51415
1338.02	0.473783
1338.29	-4.75625
1338.57	2.57961
1338.84	-0.557375
1339.11	0.492737
1339.38	4.68103
1339.65	1.54099
1339.93	0.494711
1340.2	1.54365
1340.47	0.502666
1340.74	5.73792
1341.01	-1.57623
1341.28	1.56871
1341.55	-0.515926
1341.82	1.58053
1342.1	-3.64495
1342.37	2.62943
1342.64	1.5825
1342.91	2.62694
1343.18	3.6689
1343.45	-1.55834
1343.73	5.74527
1344	-0.517195
1344.27	1.5676
1344.54	0.523882
1344.81	2.6104
1345.08	2.61328
1345.35	-1.55169
1345.63	-0.504663
1345.9	1.58223
1346.17	2.62561
1346.44	-0.498314
1346.71	1.5864
1346.98	-4.65963
1347.25	4.71277
1347.52	0.550074
1347.8	4.71278
1348.07	-0.490458
1348.34	1.59196
1348.61	-2.56835
1348.88	0.555338
1349.15	-1.5187
1349.42	0.569941
1349.69	6.82249
1349.96	1.63653
1350.24	0.605375
1350.51	-0.408672
1350.78	3.79528
1351.05	-0.390312
1351.32	2.69724
1351.59	1.63177
1351.86	2.67979
1352.13	2.68943
1352.41	4.76362
1352.68	0.607872
1352.95	2.69951
1353.22	2.71003
1353.49	0.63158
1353.76	-0.403898
1354.03	2.71555
1354.3	2.71863
1354.57	-0.394344
1354.84	1.68396
1355.11	2.72305
1355.39	5.83722
1355.66	-0.38863
1355.93	6.87445
1356.2	1.68719
1356.47	5.83728
1356.74	-0.383181
1357.01	3.76336
1357.28	0.650658
1357.55	1.68499
1357.82	5.82874
1358.09	4.79551
1358.36	-0.378933
1358.63	4.80469
1358.9	4.8083
1359.18	0.667734
1359.45	4.81216
1359.72	1.70822
1359.99	-2.42925
1360.26	2.7544
1360.53	5.87097
1360.8	2.77318
1361.07	-1.36175
1361.34	-0.320557
1361.61	3.82611
1361.88	3.82818
1362.15	5.89926
1362.42	0.720833
1362.69	5.89493
1362.97	8.99721
1363.24	3.8214
1363.51	5.88813
1363.78	0.713736
1364.05	3.81082
1364.32	0.709753
1364.59	5.87914
1364.86	4.85366
1365.13	4.86108
1365.4	0.732811
1365.67	2.80665
1365.94	7.98216
1366.21	1.78599
1366.48	-0.275463
1366.75	0.760414
1367.02	5.93074
1367.29	-0.270247
1367.56	3.8617
1367.83	-0.271126
1368.1	1.795
1368.37	2.82487
1368.64	3.8524
1368.91	2.81326
1369.18	4.87013
1369.45	8.98902
1369.72	3.82875
1369.99	1.76605
1370.26	8.98154
1370.54	8.9814
1370.81	4.86003
1371.08	3.83116
1371.34	3.83313
1371.62	6.92604
1371.89	6.92766
1372.16	3.83737
1372.43	4.87224
1372.7	6.94051
1372.97	0.762589
1373.24	9.01055
1373.51	4.88589
1373.78	3.85278
1374.05	2.81781
1374.32	5.8954
1374.59	6.93183
1374.86	5.91408
1375.13	7.98927
1375.4	10.0695
1375.67	9.06325
1375.94	9.07333
1376.21	10.107
1376.48	9.0751
1376.75	11.1354
1377.02	15.2539
1377.29	8.03106
1377.56	11.0942
1377.83	9.02354
1378.09	16.2101
1378.36	10.0508
1378.64	15.1874
1378.91	18.2558
1379.18	16.1825
1379.44	11.0336
1379.71	12.0504
1379.98	16.1434
1380.25	21.2646
1380.52	16.1257
1380.79	20.2232
1381.06	15.0929
1381.33	18.173
1381.6	18.1794
1381.87	20.2412
1382.14	17.1784
1382.41	17.1988
1382.68	11.0541
1382.95	20.3061
1383.22	18.2607
1383.49	14.1648
1383.76	14.1716
1384.03	19.3102
1384.3	18.2585
1384.57	22.2749
1384.84	25.2639
1385.11	24.2052
1385.38	28.354
1385.65	31.5161
1385.92	51.0814
1386.19	78.8615
1386.45	119.939
1386.72	156.934
1386.99	177.415
1387.26	136.233
1387.53	74.6351
1387.8	44.9065
1388.07	24.3784
1388.34	24.3758
1388.61	15.1514
1388.88	14.1203
1389.15	13.0881
1389.42	7.96128
1389.69	15.1251
1389.96	10.003
1390.23	7.95385
1390.49	6.92914
1390.76	11.0221
1391.03	7.9512
1391.3	13.0674
1391.57	6.92776
1391.84	3.85888
1392.11	2.84022
1392.38	1.82354
1392.65	2.85245
1392.92	6.95057
1393.19	6.95168
1393.46	4.90393
1393.73	0.808624
1393.99	10.0168
1394.26	5.91988
1394.53	3.86999
1394.8	4.89161
1395.07	1.82441
1395.34	4.89642
1395.61	4.90152
1395.88	4.9055
1396.15	5.93192
1396.42	-1.22462
1396.68	11.0608
1396.95	5.94829
1397.22	1.85575
1397.49	5.95532
1397.76	-1.20292
1398.03	2.89779
1398.3	4.94662
1398.57	0.854765
1398.84	1.88039
1399.11	4.96349
1399.38	3.95631
1399.64	3.97532
1399.91	5.01606
1400.18	4.00088
1400.45	-0.0994835
1400.72	6.06229
1400.99	2.97847
1401.26	9.11884
1401.53	3.99435
1401.79	5.01915
1402.06	-1.13811
1402.33	3.98707
1402.6	7.05911
1402.87	1.92806
1403.14	4.99998
1403.41	4.99779
1403.68	3.97114
1403.94	3.97336
1404.21	1.92624
1404.48	1.92953
1404.75	3.98247
1405.02	7.06091
1405.29	3.98758
1405.56	0.913877
1405.82	7.0694
1406.09	1.94528
1406.36	6.05091
1406.63	6.05417
1406.9	7.08249
1407.17	6.058
1407.44	4.00144
1407.7	11.1719
1407.97	9.11096
1408.24	16.2772
1408.51	11.1474
1408.78	13.192
1409.05	6.01942
1409.31	9.09785
1409.58	5.00804
1409.85	1.94915
1410.12	-2.12445
1410.39	4.0572
1410.66	0.957993
1410.92	2.97092
1411.19	-0.100136
1411.46	1.96898
1411.73	3.01037
1412	4.03508
1412.27	3.00985
1412.53	4.03688
1412.8	7.11796
1413.07	3.01362
1413.34	3.01638
1413.61	8.15425
1413.88	3.02234
1414.14	0.971323
1414.41	3.02925
1414.68	3.03242
1414.95	5.08932
1415.22	6.11754
1415.48	4.06349
1415.75	3.03746
1416.02	4.06529
1416.29	-3.12793
1416.56	4.06319
1416.82	0.97547
1417.09	-0.0571938
1417.36	1.99219
1417.63	6.094
1417.9	3.00717
1418.17	0.948748
1418.43	4.02497
1418.7	4.02613
1418.97	5.05965
1419.24	6.09702
1419.5	-1.08492
1419.77	2.01117
1420.04	-0.024601
1420.31	2.05763
1420.58	0.97798
1420.84	2.95963
1421.11	5.02291
1421.38	2.94453
1421.65	1.91567
1421.92	-3.19864
1422.18	6.04135
1422.45	4.0002
1422.72	0.914553
1422.99	-0.101135
1423.26	-2.15522
1423.52	2.96877
1423.79	1.93546
1424.06	0.902374
1424.33	0.894089
1424.59	1.9077
1424.86	-0.150612
1425.13	-6.29917
1425.4	4.96129
1425.66	2.91308
1425.93	7.00968
1426.2	3.93943
1426.47	2.91774
1426.73	0.87253
1427	4.97532
1427.27	4.98234
1427.54	1.91301
1427.81	4.99593
1428.07	-0.120962
1428.34	-0.112906
1428.61	-0.109324
1428.88	-0.109898
1429.14	-0.11512
1429.41	2.95588
1429.68	2.95035
1429.94	-0.135229
1430.21	1.9046
1430.48	3.9417
1430.75	3.92907
1431.02	5.96862
1431.28	0.844208
1431.55	4.9513
1431.82	4.95782
1432.08	1.88378
1432.35	3.93229
1432.62	-0.168406
1432.89	-0.170782
1433.15	3.92489
1433.42	-0.17659
1433.69	-4.27804
1433.96	2.88922
1434.22	-0.18742
1434.49	1.85894
1434.76	-4.29021
1435.02	-2.24459
1435.29	-1.22087
1435.56	1.8542
1435.83	3.90425
1436.09	0.830435
1436.36	8.00201
1436.63	-0.192001
1436.89	2.88675
1437.16	2.89305
1437.43	1.86999
1437.7	0.844784
1437.96	0.843725
1438.23	5.97109
1438.5	-1.21067
1438.77	4.93557
1439.03	1.85546
1439.3	11.0877
1439.57	1.85822
1439.83	8.01595
1440.1	2.88284
1440.37	5.95247
1440.63	-3.28081
1440.9	2.86594
1441.17	0.812794
1441.43	6.96308
1441.7	0.817936
1441.97	1.84796
1442.24	0.829527
1442.5	5.95544
1442.77	3.89891
1443.03	3.8946
1443.3	-0.212616
1443.57	2.86056
1443.84	-0.220242
1444.1	2.85242
1444.37	3.87316
1444.64	0.79166
1444.9	-1.26343
1445.17	4.88516
1445.44	0.786825
1445.7	4.89335
1445.97	1.81635
1446.24	2.83975
1446.5	1.80984
1446.77	1.80436
1447.04	3.84851
1447.3	-3.33445
1447.57	2.81186
1447.84	3.83254
1448.1	3.82813
1448.37	0.749073
1448.64	-2.32987
1448.9	1.76421
1449.17	-1.31376
1449.44	-1.31709
1449.7	1.75459
1449.97	-1.32021
1450.24	-0.295042
1450.5	1.75484
1450.77	-1.32151
1451.04	3.79836
1451.3	1.74496
1451.57	4.81676
1451.83	0.715685
1452.1	0.7127
1452.37	0.708588
1452.63	2.75571
1452.9	-3.39071
1453.17	0.708897
1453.43	1.73153
1453.7	0.702181
1453.97	-2.37871
1454.23	3.76231
1454.5	-0.340218
1454.77	1.70452
1455.03	4.77397
1455.3	1.69855
1455.56	1.69665
1455.83	2.72016
1456.1	0.669989
1456.36	-0.356226
1456.63	1.69108
1456.9	-4.4598
1457.16	5.78134
1457.43	-0.370028
1457.69	4.74715
1457.96	2.69289
1458.23	0.638416
1458.49	1.65648
1458.76	1.65003
1459.02	5.7377
1459.29	-0.411625
1459.56	3.67395
1459.82	1.61889
1460.09	0.587181
1460.36	6.71413
1460.62	2.61489
1460.89	-1.4788
1461.15	2.616
1461.42	1.60332
1461.69	3.65732
1461.95	0.595676
1462.22	5.69502
1462.48	2.56895
1462.75	4.58381
1463.02	3.55585
1463.28	1.52082
1463.55	2.53719
1463.81	3.54249
1464.08	-0.545811
1464.35	0.47439
1464.61	3.53049
1464.88	-2.5951
1465.14	-0.558895
1465.41	-0.562218
1465.67	-1.58567
1465.94	3.51007
1466.21	3.50438
1466.47	1.45846
1466.74	-0.588604
1467	0.421959
1467.27	0.414047
1467.54	3.46459
1467.8	-0.617338
1468.07	0.39662
1468.33	0.390373
1468.6	5.47486
1468.86	-1.66104
1469.13	2.40736
1469.39	5.45807
1469.66	-0.655174
1469.93	4.43212
1470.19	0.354452
1470.46	4.41978
1470.72	-1.69486
1470.99	-0.683056
1471.25	1.34734
1471.52	-0.691187
1471.79	-2.72764
1472.05	2.35998
1472.32	-0.696167
1472.58	1.33566
1472.85	-0.705185
1473.11	2.34122
1473.38	2.33531
1473.64	2.32983
1473.91	1.3052
1474.17	-1.75361
1474.44	2.30916
1474.71	0.271086
1474.97	-0.749647
1475.24	-1.77229
1475.5	4.31988
1475.77	0.246302
1476.03	1.25571
1476.3	-2.81668
1476.56	2.25588
1476.83	-0.800568
1477.09	0.206627
1477.36	1.20969
1477.62	2.21363
1477.89	-1.85406
1478.15	-1.85956
1478.42	3.20567
1478.68	2.19012
1478.95	0.161821
1479.22	1.17814
1479.48	-0.849817
1479.75	-0.84911
1480.01	-0.852201
1480.28	0.162811
1480.54	-0.854101
1480.81	2.18923
1481.07	-1.87662
1481.34	4.20135
1481.6	4.18205
1481.87	-0.919546
1482.13	4.10407
1482.4	3.07476
1482.66	-0.996378
1482.93	4.12299
1483.19	-1.95155
1483.46	2.11123
1483.72	-2.98673
1483.99	3.10107
1484.25	0.0626583
1484.52	0.0517159
1484.78	5.10677
1485.05	0.0355301
1485.31	1.04073
1485.58	-2.00547
1485.84	-2.01454
1486.11	-3.03428
1486.37	4.04268
1486.64	2.01334
1486.9	-0.0153103
1487.17	-1.03049
1487.43	3.01261
1487.7	4.01747
1487.96	-1.04844
1488.22	1.9767
1488.49	3.99277
1488.75	2.97707
1489.02	-3.09243
1489.28	2.97161
1489.55	-0.0656796
1489.81	1.95154
1490.08	3.96907
1490.34	0.932999
1490.61	1.93861
1490.87	-1.09832
1491.14	-3.12309
1491.4	-0.0922947
1491.67	-4.1373
1491.93	-1.10849
1492.19	-0.104799
1492.46	-1.12605
1492.72	2.90234
1492.99	1.88076
1493.25	1.87234
1493.52	2.87472
1493.78	1.85848
1494.05	-1.1767
1494.31	0.838266
1494.58	-3.20234
1494.84	-1.18859
1495.1	-0.183359
1495.37	-0.186512
1495.63	-0.189327
1495.9	-1.20109
1496.16	-1.20341
1496.43	-1.20521
1496.69	4.85036
1496.96	1.82105
1497.22	-1.21001
1497.48	-1.2135
1497.75	0.80139
1498.01	-3.24084
1498.28	-3.2464
1498.54	-1.23583
1498.81	-3.25909
1499.07	3.80084
1499.34	-0.240032
1499.6	-0.245615
1499.86	0.75448
1500.13	4.78007
1500.39	-0.269056
1500.66	-0.27721
1500.92	2.74404
1501.18	0.726711
1501.45	-0.283825
1501.71	-4.32072
1501.98	-1.29975
1502.24	4.74433
1502.5	-2.32071
1502.77	1.70119
1503.03	1.68765
1503.3	1.68239
1503.56	-0.336622
1503.83	1.67578
1504.09	-0.33856
1504.35	-1.34857
1504.62	4.69546
1504.88	-0.346493
1505.15	-5.38967
1505.41	1.65885
1505.67	-0.359159
1505.94	3.66904
1506.2	2.65857
1506.47	2.6549
1506.73	-2.38677
1506.99	1.6433
1507.26	-3.39682
1507.52	5.66425
1507.78	0.617794
1508.05	3.63001
1508.31	1.60475
1508.58	1.59073
1508.84	-0.438999
1509.1	1.55539
1509.37	1.53867
1509.63	3.53285
1509.9	-0.495453
1510.16	0.499552
1510.42	2.49902
1510.69	0.485565
1510.95	3.50007
1511.21	-1.51366
1511.48	-0.50963
1511.74	4.50651
1512.01	3.49235
1512.27	1.47328
1512.53	-0.544199
1512.8	-2.5619
1513.06	-0.565886
1513.32	-0.574625
1513.59	0.422434
1513.85	1.41984
1514.11	-2.59578
1514.38	-0.594402
1514.64	0.405455
1514.9	-2.60402
1515.17	3.4143
1515.43	-1.60185
1515.7	5.41785
1515.96	1.40424
1516.22	-0.602869
1516.49	-0.604019
1516.75	1.40072
1517.01	0.393761
1517.28	-2.62128
1517.54	0.383305
1517.8	-0.621601
1518.07	2.38759
1518.33	-1.62642
1518.59	3.38843
1518.86	-2.63601
1519.12	2.37528
1519.38	-0.640469
1519.65	3.36567
1519.91	-2.65826
1520.17	1.34608
1520.44	4.34246
1520.7	0.319071
1520.96	-0.692976
1521.23	3.30512
1521.49	-1.7104
1521.75	-0.715996
1522.02	-3.72063
1522.28	2.28626
1522.54	-0.720245
1522.81	-2.72297
1523.07	0.283859
1523.33	-2.71847
1523.59	-0.711992
1523.86	4.29916
1524.12	4.29563
1524.38	0.279358
1524.65	5.28556
1524.91	-1.73468
1525.17	2.26845
1525.44	-3.74925
1525.7	5.26151
1525.96	4.25401
1526.23	2.24621
1526.49	-0.762091
1526.75	-2.76974
1527.02	-0.773659
1527.28	2.22629
1527.54	-2.78139
1527.8	-1.77789
1528.07	0.227983
1528.33	1.23129
1528.59	-2.77908
1528.86	-1.78158
1529.12	3.22647
1529.38	2.2176
1529.64	-0.788017
1529.91	-0.784193
1530.17	1.22732
1530.43	1.23321
1530.69	4.24353
1530.96	2.23698
1531.22	0.227669
1531.48	-1.78277
1531.75	0.218636
1532.01	2.21891
1532.27	-1.79767
1532.53	-0.802074
1532.8	0.184532
1533.06	-3.83372
1533.32	1.16683
1533.59	2.15604
1533.85	1.14184
1534.11	5.13238
1534.37	1.12361
1534.64	-1.88637
1534.9	-1.88861
1535.16	1.10405
1535.42	-0.906857
1535.69	2.0869
1535.95	-1.91696
1536.21	-0.913473
1536.48	-3.90282
1536.74	-1.88691
1537	2.12928
1537.26	1.1365
1537.53	1.14605
1537.79	-1.85725
1538.05	0.149139
1538.31	3.14263
1538.58	1.13405
1538.84	2.12621
1539.1	2.11664
1539.36	-0.897972
1539.62	2.09739
1539.89	1.08709
1540.15	3.08037
1540.41	-0.932112
1540.67	1.05808
1540.94	-0.954132
1541.2	-0.955473
1541.46	-2.95679
1541.72	2.04722
1541.98	0.052124
1542.25	1.05616
1542.51	1.0647
1542.77	2.06981
1543.03	5.07588
1543.3	3.07371
1543.56	-0.937168
1543.82	1.06501
1544.08	1.06577
1544.35	0.0646782
1544.61	5.07566
1544.87	1.05952
1545.13	0.0411491
1545.39	1.04019
1545.66	0.037323
1545.92	-4.96456
1546.18	-2.98475
1546.44	1.98714
1546.71	3.97694
1546.97	2.99119
1547.23	-3.98871
1547.49	2.05876
1547.75	-1.9275
1548.02	4.12389
1548.28	2.09232
1548.54	-0.919216
1548.8	-1.93012
1549.06	-2.94416
1549.33	2.0841
1549.59	-3.93258
1549.85	-1.92906
1550.11	3.08269
1550.37	-3.96465
1550.64	-0.960968
1550.9	-0.965117
1551.16	-1.97516
1551.42	0.0209846
1551.68	-1.99437
1551.94	-0.00144005
1552.21	0.99489
1552.47	2.99442
1552.73	-1.0147
1552.99	-0.0133972
1553.25	-0.0149231
1553.52	-8.03421
1553.78	-1.02448
1554.04	2.98204
1554.3	-0.023531
1554.56	-0.024992
1554.82	2.97688
1555.09	6.97597
1555.35	4.96093
1555.61	6.95337
1555.87	-1.06523
1556.13	0.925783
1556.39	1.91673
1556.65	0.908752
1556.92	-2.09711
1557.18	-1.10287
1557.44	-0.107925
1557.7	-0.111895
1557.96	-2.114
1558.22	4.87915
1558.49	3.88006
1558.75	1.88461
1559.01	2.89026
1559.27	0.897202
1559.53	-3.10489
1559.79	0.892675
1560.05	-0.111408
1560.32	3.88853
1560.58	-1.11603
1560.84	3.88006
1561.1	0.888102
1561.36	1.89788
1561.62	0.899036
1561.88	3.89787
1562.15	2.88011
1562.41	1.82884
1562.67	0.762531
1562.93	-0.271658
1563.19	-4.1594
1563.45	3.86721
1563.71	1.85129
1563.98	-0.167578
1564.24	1.85123
1564.5	4.87732
1564.76	0.867594
1565.02	1.84608
1565.28	0.848202
1565.54	2.85034
1565.8	-1.14886
1566.07	-1.15258
1566.33	3.83411
1566.59	3.826
1566.85	-1.17175
1567.11	4.82513
1567.37	3.82502
1567.63	1.82522
1567.89	4.82148
1568.15	-0.178059
1568.42	1.81676
1568.68	1.81098
1568.94	0.805565
1569.2	-0.195522
1569.46	-0.200098
1569.72	0.792032
1569.98	-1.21016
1570.24	2.7782
1570.5	3.77021
1570.77	0.770605
1571.03	0.769836
1571.29	-1.22292
1571.55	-0.219936
1571.81	1.78248
1572.07	1.78842
1572.33	4.79144
1572.59	2.79737
1572.85	-1.19986
1573.11	3.79367
1573.37	-0.205187
1573.64	-0.20923
1573.9	3.77692
1574.16	-2.22673
1574.42	3.75224
1574.68	1.74506
1574.94	1.73497
1575.2	1.72547
1575.46	-0.27487
1575.72	7.698
1575.98	-0.278799
1576.24	2.71071
1576.5	-2.27469
1576.76	4.70457
1577.03	1.71674
1577.29	1.71784
1577.55	0.720217
1577.81	1.71536
1578.07	-6.26534
1578.33	2.70273
1578.59	2.69802
1578.85	-1.29511
1579.11	3.68042
1579.37	-4.29306
1579.63	-1.3068
1579.89	2.67496
1580.15	5.66071
1580.41	2.6707
1580.67	2.66918
1580.93	1.66948
1581.19	2.66451
1581.46	2.66629
1581.72	2.66748
1581.98	2.66793
1582.24	-1.31753
1582.5	4.65668
1582.76	0.671057
1583.02	2.65969
1583.28	1.65651
1583.54	2.64433
1583.8	5.62431
1584.06	4.62421
1584.32	3.62518
1584.58	0.637045
1584.84	-1.35476
1585.1	3.61943
1585.36	2.62625
1585.62	4.6192
1585.88	-0.353088
1586.14	3.63109
1586.4	1.64339
1586.66	-0.345692
1586.92	1.64601
1587.18	6.62354
1587.44	1.64714
1587.7	-0.341692
1587.96	6.63175
1588.22	2.64678
1588.48	-3.32912
1588.74	-0.343662
1589	5.62754
1589.26	-1.34842
1589.52	8.59501
1589.78	4.60657
1590.04	2.61194
1590.3	1.60653
1590.56	-0.393047
1590.82	1.58303
1591.08	-1.40469
1591.34	5.54427
1591.6	-0.415518
1591.86	-0.412745
1592.12	6.54718
1592.38	6.55136
1592.64	1.58298
1592.9	1.56979
1593.16	0.575745
1593.42	1.56872
1593.68	0.575541
1593.94	5.54268
1594.2	0.578098
1594.46	4.55398
1594.72	1.57607
1594.98	-1.40515
1595.24	6.53939
1595.5	5.54022
1595.76	3.54559
1596.02	3.53819
1596.28	8.49509
1596.54	0.550339
1596.8	2.53008
1597.06	2.52511
1597.32	-1.44704
1597.58	0.531433
1597.84	-1.45802
1598.1	2.49869
1598.36	3.47991
1598.62	2.47978
1598.88	1.48182
1599.14	1.47606
1599.4	4.44011
1599.66	2.45438
1599.92	2.44746
1600.18	6.39772
1600.44	2.43594
1600.7	-0.534061
1600.96	4.40764
1601.22	3.41837
1601.48	4.40779
1601.73	2.43138
1601.99	5.39823
1602.25	0.455194
1602.51	2.43407
1602.77	2.43669
1603.03	3.42935
1603.29	3.43355
1603.55	0.469921
1603.81	0.473063
1604.07	8.39141
1604.33	-2.49166
1604.59	7.40315
1604.85	5.42337
1605.11	1.46558
1605.37	2.45498
1605.63	0.476048
1605.89	9.3782
1606.14	-0.521105
1606.4	6.39265
1606.66	5.39638
1606.92	0.446487
1607.18	5.35167
1607.44	5.29135
1607.7	-3.36836
1607.96	8.13388
1608.22	4.10197
1608.48	2.41957
1608.74	5.03004
1609	3.41585
1609.26	2.49419
1609.51	3.98197
1609.77	4.6595
1610.03	-1.75292
1610.29	0.711565
1610.55	-0.249874
1610.81	0.576254
1611.07	3.43923
1611.33	3.41826
1611.59	-0.634533
1611.85	4.3899
1612.11	-0.712444
1612.36	2.47019
1612.62	2.96358
1612.88	4.66834
1613.14	3.72275
1613.4	1.2339
1613.66	5.63774
1613.92	2.0611
1614.18	2.61626
1614.44	1.84423
1614.7	4.07802
1614.95	1.35907
1615.21	6.72984
1615.47	0.0789318
1615.73	1.86985
1615.99	4.80135
1616.25	4.41252
1616.51	2.59396
1616.77	3.20254
1617.03	3.1763
1617.28	3.74529
1617.54	1.67587
1617.8	5.25876
1618.06	0.547659
1618.32	4.21948
1618.58	1.88124
1618.84	0.368929
1619.1	2.1084
1619.35	4.07401
1619.61	0.993652
1619.87	1.40299
1620.13	2.64128
1620.39	1.53811
1620.65	2.43691
1620.91	2.61978
1621.17	1.52824
1621.42	5.61573
1621.68	4.84603
1621.94	3.01815
1622.2	2.48685
1622.46	2.82916
1622.72	3.2888
1622.98	1.93859
1623.23	2.2207
1623.49	4.3635
1623.75	2.10481
1624.01	1.57501
1624.27	5.75685
1624.53	4.1815
1624.79	4.35584
1625.04	2.70837
1625.3	4.98222
1625.56	3.18822
1625.82	3.55411
1626.08	4.30651
1626.34	1.91932
1626.59	2.86848
1626.85	4.22783
1627.11	5.31021
1627.37	1.76802
1627.63	0.931675
1627.89	3.41211
1628.14	4.97397
1628.4	3.37556
1628.66	2.16995
1628.92	5.27494
1629.18	1.01632
1629.44	4.14425
1629.69	3.75662
1629.95	0.94453
1630.21	3.00375
1630.47	5.1539
1630.73	2.7676
1630.99	3.36774
1631.24	3.44296
1631.29	3.4794
1631.55	3.48227
1631.81	5.45584
1632.07	-0.457024
1632.33	-0.456194
1632.59	5.45762
1632.86	6.44255
1633.12	-0.456413
1633.38	5.45438
1633.64	0.526987
1633.9	0.525633
1634.16	5.44791
1634.42	1.50663
1634.68	2.49138
1634.95	-0.461668
1635.21	3.4761
1635.47	4.45985
1635.73	4.46044
1635.99	2.49397
1636.25	5.44894
1636.51	5.45065
1636.77	2.49941
1637.03	-0.452166
1637.3	2.50203
1637.56	1.52172
1637.82	1.52795
1638.08	4.48677
1638.34	5.47377
1638.6	1.53494
1638.86	1.53472
1639.12	1.5352
1639.39	3.505
1639.65	3.50592
1639.91	0.553974
1640.17	6.46113
1640.43	0.557079
1640.69	4.49525
1640.95	3.51086
1641.21	1.54196
1641.47	0.556082
1641.73	-2.3952
1641.99	5.47655
1642.25	1.54677
1642.52	3.5193
1642.78	2.53966
1643.04	-3.36332
1643.3	3.52465
1643.56	2.54003
1643.82	0.572315
1644.08	3.52454
1644.34	0.572733
1644.6	2.53996
1644.86	0.573065
1645.12	2.54249
1645.38	2.54576
1645.65	3.53691
1645.91	3.54434
1646.17	4.54718
1646.43	4.54897
1646.69	4.54928
1646.95	2.57953
1647.21	-0.369831
1647.47	3.57966
1647.73	3.58633
1647.99	2.60899
1648.25	0.645315
1648.51	4.59189
1648.77	3.60989
1649.03	4.59773
1649.29	4.60035
1649.55	-0.323357
1649.82	5.58806
1650.08	2.6318
1650.34	6.57433
1650.6	3.62157
1650.86	4.6109
1651.12	5.60186
1651.38	5.60581
1651.64	4.62397
1651.9	4.62868
1652.16	4.63509
1652.42	3.65758
1652.68	3.66819
1652.94	3.67985
1653.2	3.68784
1653.46	0.732975
1653.72	-0.249763
1653.98	3.70207
1654.24	5.67777
1654.5	-0.244196
1654.76	2.71697
1655.02	6.66542
1655.28	1.73196
1655.54	2.71856
1655.81	3.70426
1656.07	5.67596
1656.33	2.71594
1656.58	3.70112
1656.84	0.741858
1657.11	6.65606
1657.37	4.68978
1657.63	3.71013
1657.89	-0.227665
1658.15	3.72449
1658.41	2.74571
1658.67	1.76595
1658.93	2.75849
1659.19	2.75413
1659.45	0.781643
1659.71	-0.165157
1659.97	-0.150064
1660.23	4.78491
1660.49	2.81069
1660.75	0.814209
1661.01	7.69724
1661.27	0.814837
1661.53	2.79593
1661.79	2.80424
1662.05	0.84334
1662.31	2.81987
1662.57	6.73171
1662.83	3.78785
1663.09	-0.116842
1663.35	2.85278
1663.61	-1.09652
1663.87	3.77069
1664.13	0.807096
1664.39	4.79893
1664.65	2.82226
1664.91	0.848633
1665.17	3.80844
1665.43	1.83483
1665.69	3.81374
1665.95	5.80648
1666.21	-1.09292
1666.47	5.82564
1666.72	0.890686
1666.99	0.894651
1667.25	3.85629
1667.51	4.85162
1667.76	1.90536
1668.02	-0.0653992
1668.28	0.92378
1668.54	1.91392
1668.8	2.90429
1669.06	-0.0556087
1669.32	1.92584
1669.58	1.92969
1669.84	1.93237
1670.1	3.91276
1670.36	2.9282
1670.62	1.94388
1670.88	4.91499
1671.14	3.93242
1671.4	0.972422
1671.66	0.978184
1671.92	2.96293
1672.18	2.97128
1672.44	3.96722
1672.7	4.96205
1672.96	0.016901
1673.22	2.98866
1673.48	3.98292
1673.74	2.008
1674	3.00149
1674.25	1.02462
1674.51	-0.952942
1674.77	-0.951719
1675.03	1.02716
1675.29	2.01499
1675.55	3.00212
1675.81	3.99011
1676.07	2.0127
1676.33	-1.94111
1676.59	4.98027
1676.85	2.01551
1677.11	0.0399189
1677.37	1.02988
1677.63	1.03078
1677.89	3.00798
1678.15	4.98526
1678.4	1.03588
1678.66	4.99058
1678.92	3.01795
1679.18	3.02135
1679.44	3.02503
1679.7	0.0648136
1679.96	0.067297
1680.22	0.0701637
1680.48	2.0491
1680.74	2.05232
1681	2.05486
1681.25	4.03172
1681.51	0.081234
1681.77	1.07056
1682.03	2.06043
1682.29	5.02557
1682.55	3.0537
1682.81	0.0947323
1683.07	-0.889057
1683.33	6.02766
1683.59	3.07155
1683.84	0.115959
1684.1	0.121235
1684.36	5.06407
1684.62	3.08962
1684.88	7.04101
1685.14	1.11592
1685.4	2.10472
1685.66	3.09291
1685.92	2.10501
1686.18	6.05192
1686.43	5.06391
1686.69	3.08937
1686.95	1.11486
1687.21	2.09982
1687.47	1.1187
1687.73	2.11296
1687.99	0.146021
1688.25	3.11144
1688.51	3.11604
1688.76	2.1361
1689.02	0.167099
1689.28	1.15731
1689.54	-2.78821
1689.8	-0.814482
1690.06	-2.78787
1690.32	1.15638
1690.58	-1.80432
1690.84	3.12182
1691.09	3.12153
1691.35	-1.80678
1691.61	0.163099
1691.87	2.13403
1692.13	-1.80189
1692.39	1.15837
1692.64	1.16313
1692.9	1.16814
1693.16	0.188105
1693.42	2.16608
1693.68	-0.785242
1693.94	0.203178
1694.2	3.16047
1694.46	2.17382
1694.71	1.18625
1694.97	1.18411
1695.23	1.18338
1695.49	0.199009
1695.75	2.1675
1696.01	2.16829
1696.26	0.202713
1696.52	1.19016
1696.78	-0.772865
1697.04	0.214909
1697.3	1.20222
1697.56	1.20189
1697.81	1.20494
1698.07	3.17505
1698.33	1.20981
1698.59	3.1783
1698.85	-0.755892
1699.11	0.227041
1699.37	4.15899
1699.62	0.226374
1699.88	3.17495
1700.14	3.17749
1700.4	2.1977
1700.66	2.19972
1700.91	1.21895
1701.17	1.22227
1701.43	3.19344
1701.69	2.21707
1701.95	0.255714
1702.21	0.258316
1702.46	1.24367
1702.72	1.24753
1702.98	0.267756
1703.24	-0.714548
1703.5	2.2312
1703.75	3.21127
1704.01	3.2089
1704.27	1.24409
1704.53	1.24274
1704.79	2.22112
1705.04	0.256279
1705.3	0.253365
1705.56	-1.70994
1705.82	-0.733465
1706.08	0.243595
1706.33	3.18031
1706.59	-0.734962
1706.85	3.18348
1707.11	-1.70754
1707.37	5.14942
1707.62	1.23815
1707.88	2.22363
1708.14	-2.66578
1708.4	1.25709
1708.66	0.283413
1708.91	-2.64991
1709.17	0.292078
1709.43	-0.68667
1709.69	-0.689621
1709.95	-2.65134
1710.2	2.23517
1710.46	0.275112
1710.72	1.24759
1710.98	-0.709604
1711.23	0.267839
1711.49	2.22277
1711.75	2.22473
1712.01	-0.702778
1712.27	-1.67565
1712.52	-0.689793
1712.78	4.20217
1713.04	1.27398
1713.3	-0.678303
1713.55	2.25264
1713.81	0.297945
1714.07	3.22425
1714.33	1.26731
1714.58	0.285797
1714.84	4.1787
1715.1	1.24889
1715.36	1.24393
1715.61	1.2413
1715.87	-1.68045
1716.13	4.16335
1716.39	0.272776
1716.64	2.22329
1716.9	-1.66864
1717.16	0.285234
1717.42	1.26243
1717.68	0.289946
1717.93	0.289558
1718.19	-1.6591
1718.45	0.287254
1718.71	2.23189
1718.96	-0.687002
1719.22	2.22835
1719.48	2.22623
1719.74	-2.63434
1719.99	0.279749
1720.25	0.279217
1720.51	-1.66254
1720.76	1.25254
1721.02	2.22774
1721.28	-1.65483
1721.54	4.17366
1721.79	-0.681107
1722.05	0.287319
1722.31	1.2524
1722.56	1.24869
1722.82	-1.6636
1723.08	1.24372
1723.34	1.24584
1723.59	0.282299
1723.85	2.22179
1724.11	-0.685217
1724.37	2.21769
1724.62	-0.682703
1724.88	2.23148
1725.14	1.26406
1725.39	3.20003
1725.65	-2.61791
1725.91	0.258396
1726.17	2.16489
1726.42	1.19814
1726.68	-0.715845
1726.94	0.263662
1727.19	-1.66202
1727.45	4.12501
1727.71	-0.70351
1727.96	1.23656
1728.22	0.292242
1728.48	1.26368
1728.74	0.301224
1728.99	0.304392
1729.25	-1.62604
1729.51	-0.657803
1729.76	-1.62255
1730.02	5.14011
1730.28	-0.656803
1730.53	3.20219
1730.79	0.300898
1731.05	0.296856
1731.3	-0.670115
1731.56	1.25553
1731.82	1.25224
1732.08	2.21242
1732.33	0.282755
1732.59	-2.60748
1732.85	1.24356
1733.1	1.24452
1733.36	1.24636
1733.62	3.17237
1733.87	-0.67594
1734.13	-0.674908
1734.39	0.287914
1734.64	2.21283
1734.9	-0.671698
1735.16	1.25138
1735.41	1.25049
1735.67	-1.63362
1735.93	0.287941
1736.18	-0.674189
1736.44	1.2443
1736.7	-2.60083
1736.95	-0.686043
1737.21	-5.48622
1737.47	1.22367
1737.72	2.17964
1737.98	3.13647
1738.24	-2.61366
1738.49	1.21774
1738.75	-1.6559
1739.01	5.04786
1739.26	3.13443
1739.52	-3.56483
1739.78	1.2238
1740.03	1.22541
1740.29	4.0997
1740.54	3.14573
1740.8	-0.681889
1741.06	-2.59627
1741.31	0.274961
1741.57	0.275375
1741.83	1.23503
1742.08	-0.674177
1742.34	1.24304
1742.6	0.290041
1742.85	1.24878
1743.11	1.24929
1743.36	-1.62007
1743.62	-0.665693
1743.88	0.287413
1744.13	0.287033
1744.39	2.19406
1744.65	1.23867
1744.9	-4.49084
1745.16	-2.57893
1745.42	0.28821
1745.67	3.15606
1745.93	-1.61217
1746.18	-2.56177
1746.44	2.21841
1746.7	0.316038
1746.95	-4.45194
1747.21	0.332546
1747.46	-0.614538
1747.72	3.21638
1747.98	0.353685
1748.23	0.359838
1748.49	0.363247
1748.74	1.31911
1749	-1.55061
1749.26	-2.50775
1749.51	1.31228
1749.77	2.26609
1750.02	-2.5086
1750.28	2.2633
1750.54	-1.55421
1750.79	1.30857
1751.05	1.30843
1751.31	-1.55398
1751.56	1.30629
1751.82	1.30673
1752.07	-0.599041
1752.33	2.26168
1752.59	-1.54986
1752.84	1.30884
1753.1	-0.597651
1753.35	-0.599035
1753.61	-1.55316
1753.86	-1.55564
1754.12	2.2481
1754.38	0.343674
1754.63	-0.60647
1754.89	0.346769
1755.14	-0.598091
1755.4	0.361595
1755.66	1.31822
1755.91	3.22531
1756.17	-1.5287
1756.42	3.23336
1756.68	-0.568872
1756.93	-1.51762
1757.19	0.387506
1757.44	-0.562243
1757.7	0.390663
1757.96	0.39152
1758.21	0.391409
1758.47	2.29263
1758.72	0.391014
1758.98	-0.558331
1759.23	-1.50694
1759.49	-2.45338
1759.75	1.35588
1760	4.2137
1760.26	1.36452
1760.51	0.416794
1760.77	-3.38224
1761.02	0.426313
1761.28	2.33428
1761.53	3.29572
1761.79	1.40288
1762.05	-0.493855
1762.3	-3.34373
1762.56	0.469057
1762.81	2.37784
1763.07	0.477724
1763.32	1.43308
1763.58	-0.468538
1763.83	2.38888
1764.09	-0.46426
1764.34	1.44215
1764.6	-2.36365
1764.85	1.44341
1765.11	-3.31343
1765.37	0.493097
1765.62	-0.455328
1765.88	-1.40658
1766.13	-1.41269
1766.39	3.33218
1766.64	1.4233
1766.9	-3.32496
1767.15	-1.42153
1767.41	2.38781
1767.66	-3.30625
1767.92	0.49781
1768.17	0.503147
1768.43	1.4644
1768.68	1.47452
1768.94	4.33145
1769.19	0.533049
1769.45	-0.410789
1769.7	0.547886
1769.96	-0.397497
1770.21	0.559704
1770.47	2.46883
1770.72	0.570742
1770.98	-1.32795
1771.23	3.43665
1771.49	1.53708
1771.74	1.54161
1772	-2.26094
1772.26	-1.30393
1772.51	0.60895
1772.76	-0.331251
1773.02	1.58238
1773.27	-0.318865
1773.53	0.637918
1773.78	-0.313637
1774.04	4.4524
1774.29	0.639616
1774.55	1.59328
1774.8	4.4505
1775.06	4.44926
1775.31	1.59081
1775.57	0.637724
1775.82	-1.26778
1776.08	3.4888
1776.33	-0.319876
1776.59	-0.31917
1776.84	2.53959
1777.1	2.54811
1777.35	-2.20593
1777.61	-3.15328
1777.86	-1.24487
1778.12	0.663673
1778.37	1.61931
1778.63	0.671532
1778.88	-4.08411
1779.13	1.63511
1779.39	0.689735
1779.65	1.64984
1779.9	3.56164
1780.15	0.708523
1780.41	-3.09836
1780.66	-0.233486
1780.92	-1.18116
1781.17	3.59222
1781.43	0.739008
1781.68	2.65454
1781.94	2.66059
1782.19	0.756687
1782.45	0.759325
1782.7	0.760843
1782.95	0.761496
1783.21	-0.190861
1783.46	0.766697
1783.72	1.72598
1783.97	-0.175665
1784.23	-0.168161
1784.48	0.795355
1784.74	-3.96817
1784.99	-0.132484
1785.24	-1.07303
1785.5	2.76883
1785.75	1.82192
1786.01	-5.8311
1786.26	1.83809
1786.52	0.890314
1786.77	1.85579
1787.03	-1.01395
1787.28	0.908737
1787.54	-0.0451298
1787.79	-1.00133
1788.04	0.918106
1788.3	-1.00517
1788.55	2.82152
1788.81	-2.92444
1789.06	0.907965
1789.31	-1.00403
1789.57	-0.0430107
1789.82	-0.0383358
1790.08	0.924551
1790.33	4.76111
1790.59	-1.94275
1790.84	0.935909
1791.09	-0.976093
1791.35	1.90249
1791.6	0.944719
1791.86	3.8193
1792.11	0.000905991
1792.36	-1.90094
1792.62	1.94825
1792.87	2.91538
1793.13	-1.87849
1793.38	-0.912273
1793.64	0.05443
1793.89	1.02175
1794.14	1.98943
1794.4	3.91808
1794.65	2.96315
1794.9	2.00729
1795.16	1.05084
1795.41	0.0936756
1795.67	-0.864357
1795.92	1.0611
1796.17	0.100603
1796.43	0.100708
1796.68	2.02224
1796.94	0.0982265
1797.19	2.98005
1797.44	2.9794
1797.7	2.01878
1797.95	-0.862198
1798.21	-0.860695
1798.46	-1.8192
1798.71	0.104467
1798.97	1.0684
1799.22	3.95435
1799.47	-3.72663
1799.73	3.0043
1799.98	2.04973
1800.24	2.0567
1800.49	2.0639
1800.74	0.146368
1801	3.03517
1801.25	1.11524
1801.5	-0.802786
1801.76	3.05177
1802.01	0.171354
1802.27	2.10366
1802.52	1.14872
1802.77	0.193073
1803.03	4.05243
1803.28	-0.758303
1803.53	3.10121
1803.79	-2.67573
1804.04	4.07409
1804.29	3.11302
1804.55	1.18783
1804.8	0.226332
1805.05	3.12037
1805.31	2.1592
1805.56	-1.6935
1805.81	3.12888
1806.07	0.240101
1806.32	-0.720921
1806.58	1.20999
1806.83	-1.67913
1807.08	1.21614
1807.34	2.18309
1807.59	1.22103
1807.84	0.25778
1808.1	-0.705008
1808.35	-0.703085
1808.6	1.22668
1808.86	1.22866
1809.11	0.267111
1809.36	-0.693586
1809.62	2.2035
1809.87	3.17341
1810.12	-0.678801
1810.38	3.18398
1810.63	0.293623
1810.88	1.26395
1811.14	1.27114
1811.39	2.24402
1811.64	1.28741
1811.9	2.26119
1812.15	-0.631363
1812.4	1.30577
1812.65	0.342848
1812.91	0.345739
1813.16	0.348787
1813.41	0.351551
1813.67	3.25572
1813.92	3.25758
1814.17	0.358829
1814.43	4.22065
1814.68	1.31305
1814.93	-1.5861
1815.19	0.349152
1815.44	2.28737
1815.69	-1.56968
1815.95	1.3317
1816.2	-2.532
1816.45	0.370785
1816.7	0.375198
1816.96	-1.55443
1817.21	-0.58404
1817.46	-1.54676
1817.72	-0.57547
1817.97	5.2311
1818.22	1.36637
1818.47	0.403847
1818.73	0.408766
1818.98	-0.55448
1819.23	3.32065
1819.49	0.42058
1819.74	0.423462
1819.99	-1.5098
1820.24	0.428843
1820.5	0.429379
1820.75	-1.50664
1821	-1.50696
1821.26	1.39883
1821.51	1.40236
1821.76	2.37387
1822.01	1.40929
1822.27	-0.523434
1822.52	-3.42492
1822.77	3.35652
1823.03	0.452932
1823.28	0.454344
1823.53	-0.511871
1823.78	1.42704
1824.04	0.460642
1824.29	1.43242
1824.54	4.34217
1824.79	1.44
1825.05	0.474434
1825.3	1.44407
1825.55	2.41366
1825.8	1.44351
1826.06	2.41057
1826.31	-1.46368
1826.56	1.44284
1826.81	1.44327
1827.07	3.38023
1827.32	-1.4631
1827.57	0.472942
1827.82	-0.496012
1828.08	2.41095
1828.33	-0.489571
1828.58	0.482729
1828.83	3.39255
1829.09	2.42799
1829.34	-0.474184
1829.59	1.46778
1829.84	2.44303
1830.1	0.508059
1830.35	-0.46023
1830.6	6.32702
1830.85	-1.42422
1831.11	-0.453089
1831.36	0.51895
1831.61	3.41967
1831.86	4.37637
1832.12	-2.41052
1832.37	-2.4169
1832.62	1.44998
1832.87	-0.488682
1833.13	0.480516
1833.38	-1.45017
1833.63	2.52428
1833.88	1.51841
1834.13	1.49561
1834.39	1.48986
1834.64	-1.43037
1834.89	-0.473251
1835.14	0.474684
1835.39	5.29772
1835.65	-0.493275
1835.9	-0.457678
1836.15	-2.3855
1836.4	-1.41016
1836.65	4.40688
1836.91	-0.434027
1837.16	1.50592
1837.41	1.48532
1837.66	-0.462009
1837.92	1.46223
1838.17	3.38616
1838.42	2.41034
1838.67	3.36751
1838.92	-0.501751
1839.18	-0.507608
1839.43	-0.513044
1839.68	1.41296
1839.93	-0.512409
1840.18	-0.512743
1840.43	-0.51009
1840.69	0.455027
1840.94	2.38454
1841.19	-0.509995
1841.44	1.42064
1841.7	0.458889
1841.95	1.42359
1842.2	0.45759
1842.45	2.38817
1842.7	2.39185
1842.95	-1.45842
1843.2	2.41205
1843.46	0.491657
1843.71	0.498398
1843.96	3.37891
1844.21	-3.40333
1844.46	1.39149
1844.72	-1.50017
1844.97	2.35488
1845.22	4.29317
1845.47	1.40681
1845.72	0.435425
1845.97	1.3957
1846.23	0.43264
1846.48	1.39136
1846.73	0.423515
1846.98	1.38011
1847.23	4.25866
1847.48	1.36724
1847.74	0.400768
1847.99	1.3574
1848.24	-0.567677
1848.49	-2.49133
1848.74	-0.572409
1848.99	-0.573441
1849.25	-0.573502
1849.5	0.387188
1849.75	2.30822
1850	0.388105
1850.25	2.30814
1850.5	1.34695
1850.75	-1.53537
1851.01	2.30013
1851.26	-4.42233
1851.51	3.24642
1851.76	-3.47117
1852.01	3.23914
1852.26	1.3179
1852.51	-3.4804
1852.76	-1.56859
1853.02	1.30319
1853.27	0.343933
1853.52	-0.614105
1853.77	-3.48699
1854.02	1.30198
1854.27	1.30124
1854.52	0.341635
1854.78	-0.617861
1855.03	1.29488
1855.28	4.16336
1855.53	2.24451
1855.78	1.28289
1856.03	1.27838
1856.28	-0.639315
1856.53	1.26834
1856.79	-1.602
1857.04	0.31068
1857.29	-1.60147
1857.54	1.26918
1857.79	-2.55144
1858.04	0.320578
1858.29	2.23717
1858.54	-0.628746
1858.79	2.24477
1859.04	-0.625679
1859.3	2.24362
1859.55	2.2398
1859.8	0.321989
1860.05	1.27361
1860.3	-0.643255
1860.55	1.26423
1860.8	0.304352
1861.05	2.21169
1861.3	0.297203
1861.56	-0.661245
1861.81	-5.43945
1862.06	1.24079
1862.31	0.280659
1862.56	-1.63382
1862.81	-1.63996
1863.06	-1.64712
1863.31	2.15766
1863.56	0.243002
1863.81	-0.717371
1864.06	3.08215
1864.32	-0.732883
1864.57	0.211327
1864.82	1.15706
1865.07	0.203518
1865.32	4.00408
1865.57	1.15094
1865.82	-0.749537
1866.07	3.05427
1866.32	0.201223
1866.57	1.15057
1866.82	-0.752037
1867.07	1.14784
1867.32	0.196177
1867.57	-1.70584
1867.83	0.194166
1868.08	0.193598
1868.33	2.09377
1868.58	0.19095
1868.83	-1.71206
1869.08	2.08449
1869.33	2.08216
1869.58	3.97917
1869.83	-0.774033
1870.08	2.07039
1870.33	2.06781
1870.58	1.11755
1870.83	-0.783232
1871.08	-1.73555
1871.33	-1.73943
1871.58	0.15345
1871.84	-0.800289
1872.08	-0.80546
1872.33	1.08482
1872.59	3.92121
1872.84	0.122435
1873.09	2.00473
1873.34	1.05113
1873.59	1.99096
1873.84	-2.74364
1874.09	1.0355
1874.34	-1.8123
1874.59	1.95243
1874.84	4.76658
1875.09	0.0805588
1875.34	2.03051
1875.59	1.99125
1875.84	4.82572
1876.09	1.98984
1876.34	1.06226
1876.59	1.06606
1876.84	-1.78319
1877.09	0.10586
1877.34	1.05149
1877.59	0.10429
1877.84	2.00009
1878.09	-0.845181
1878.34	1.99158
1878.59	1.98108
1878.84	2.91549
1879.09	1.9583
1879.34	1.00125
1879.59	0.988083
1879.84	0.97562
1880.1	1.90996
1880.34	0.996037
1880.59	0.119509
1880.84	-0.905972
1881.1	1.88874
1881.34	0.951954
1881.59	1.89918
1881.84	1.89287
1882.1	0.0154343
1882.34	0.0224457
1882.59	0.967915
1882.85	-0.915243
1883.1	0.979891
1883.34	-0.90531
1883.59	1.92862
1883.85	0.979094
1884.09	3.80294
1884.34	1.9095
1884.59	2.84715
1884.84	-0.932198
1885.09	1.89114
1885.34	0.940741
1885.59	3.75923
1885.84	2.80864
1886.09	3.74227
1886.34	1.85233
1886.59	0.907938
1886.84	-0.035368
1887.09	0.90509
1887.34	-0.975708
1887.59	-0.0302505
1887.84	-0.0278091
1888.09	-0.969902
1888.34	-0.0303974
1888.59	2.7931
1888.84	2.79133
1889.09	-0.977875
1889.34	-0.0376472
1889.59	-0.0401649
1889.84	-3.80997
1890.09	1.83266
1890.34	-0.0595684
1890.59	-1.95182
1890.84	0.859396
1891.09	1.80132
1891.34	1.79762
1891.59	0.850929
1891.84	-3.85051
1892.09	2.72411
1892.34	-0.0943489
1892.59	-1.03328
1892.83	-0.0926018
1893.08	1.7883
1893.33	1.79024
1893.58	0.852943
1893.83	-1.02482
1894.08	4.61968
1894.33	2.7404
1894.58	4.62235
1894.83	2.74068
1895.08	-1.02355
1895.33	0.855043
1895.58	-1.02978
1895.83	-1.03443
1896.08	-0.100098
1896.33	0.833811
1896.58	-1.04965
1896.83	-0.113136
1897.08	-1.05667
1897.32	-1.05945
1897.57	-2.00026
1897.82	-1.06096
1898.07	-1.05999
1898.32	1.76169
1898.57	-3.87479
1898.82	0.827698
1899.07	2.71103
1899.32	0.834898
1899.57	0.836485
1899.82	2.71563
1900.07	0.831408
1900.31	1.76815
1900.57	0.82423
1900.81	4.58254
1901.06	-1.06157
1901.31	1.75703
1901.56	-0.125195
1901.81	0.812838
1902.06	-0.129765
1902.31	-0.131489
1902.56	2.68702
1902.81	-1.07609
1903.06	-0.14555
1903.31	2.66689
1903.55	2.66275
1903.8	0.780504
1904.05	0.777323
1904.3	1.7137
1904.55	-0.164492
1904.8	1.71308
1905.05	0.776846
1905.3	1.71783
1905.55	1.71764
1905.79	-2.98018
1906.04	0.779314
1906.29	1.72129
1906.54	0.784454
1906.79	0.788563
1907.04	0.793503
1907.29	-1.08296
1907.54	5.51123
1907.79	-0.13258
1908.04	-0.130129
1908.28	0.81292
1908.53	-2.95477
1908.78	-1.07197
1909.03	1.75213
1909.28	3.63231
1909.53	1.74617
1909.78	-2.02301
1910.03	0.801105
1910.27	0.799616
1910.52	-1.08452
1910.77	-0.140091
1911.02	-0.135256
1911.27	1.75451
1911.52	-1.07163
1911.77	2.70343
1912.02	-0.123358
1912.26	0.822266
1912.51	1.7667
1912.76	2.7094
1913.01	-1.06773
1913.26	-2.01464
1913.51	3.64428
1913.76	-1.07878
1914	1.74519
1914.25	-1.08873
1914.5	1.73558
1914.75	3.61765
1915	-1.09863
1915.25	1.72936
1915.49	-3.92619
1915.74	2.67826
1915.99	0.795992
1916.24	-1.08683
1916.49	3.63791
1916.74	-0.130972
1916.99	0.817795
1917.23	-1.0709
1917.48	1.76212
1917.73	0.811913
1917.98	-2.02052
1918.23	-1.07203
1918.48	2.71288
1918.72	-1.06889
1918.97	2.71531
1919.22	2.71471
1919.47	0.8209
1919.72	2.70828
1919.97	1.75715
1920.21	-0.13806
1920.46	-0.141397
1920.71	-2.03521
1920.96	-2.03876
1921.21	1.7366
1921.46	2.67568
1921.7	1.72722
1921.95	0.780457
1922.2	2.66971
1922.45	-1.10828
1922.7	-2.99608
1922.94	0.789551
1923.19	0.7931
1923.44	3.63469
1923.69	0.800695
1923.94	-1.08813
1924.19	-0.139982
1924.43	-2.03277
1924.68	0.808857
1924.93	0.809494
1925.18	0.809963
1925.43	-1.08454
1925.67	1.75731
1925.92	2.70609
1926.17	3.65493
1926.42	1.76151
1926.66	0.816839
1926.91	-2.02385
1927.16	4.61937
1927.41	-0.119946
1927.66	-1.06642
1927.91	0.834806
1928.15	-2.96418
1928.4	0.831768
1928.65	6.52383
1928.9	-2.0247
1929.15	-0.130808
1929.39	4.60938
1929.64	-2.03789
1929.89	0.803993
1930.14	0.801052
1930.38	1.74558
1930.63	0.798046
1930.88	0.803541
1931.13	-0.1367
1931.37	0.825783
1931.62	2.74472
1931.87	-2.9506
1932.12	2.77484
1932.37	-0.0738049
1932.61	0.886335
1932.86	-1.02159
1933.11	-1.98849
1933.36	-0.084549
1933.61	1.81765
1933.85	1.81236
1934.1	-2.00495
1934.35	-2.96358
1934.6	1.79199
1934.84	0.83358
1935.09	-2.02776
1935.34	1.77426
1935.59	4.62997
1935.83	2.73147
1936.08	-2.02937
1936.33	0.828606
1936.58	-2.02779
1936.82	-1.07477
1937.07	0.831242
1937.32	2.73673
1937.57	3.6937
1937.81	0.839718
1938.06	-1.0579
1938.31	4.67053
1938.56	-2.01293
1938.8	1.79765
1939.05	-2.02852
1939.3	-1.08321
1939.55	-2.02749
1939.79	-2.96964
1940.04	3.71422
1940.29	-2.01882
1940.54	0.834131
1940.78	0.823416
1941.03	0.820414
1941.28	-0.124382
1941.52	-0.122946
1941.77	1.78892
1942.02	-1.07335
1942.27	2.75043
1942.51	-0.11282
1942.76	-2.02189
1943.01	0.847691
1943.26	-1.06319
1943.5	-4.888
1943.75	3.71882
1944	2.76099
1944.24	-1.06776
1944.49	2.75354
1944.74	0.837151
1944.99	0.834665
1945.23	1.78855
1945.48	0.8295
1945.73	-0.129671
1945.97	-0.129959
1946.22	0.828087
1946.47	-0.126474
1946.71	0.832644
1946.96	-0.121342
1947.21	-1.07471
1947.46	0.846985
1947.7	-0.104694
1947.95	-2.97556
1948.2	-1.05308
1948.44	-1.04774
1948.69	-2.00303
1948.94	-2.00051
1949.19	1.84119
1949.43	1.84234
1949.68	1.84212
1949.93	-2.00118
1950.17	-0.0782967
1950.42	-0.0791893
1950.67	-1.04821
1950.91	0.860666
1951.16	-0.113762
1951.41	-1.08572
1951.65	2.73624
1951.9	0.810076
1952.15	-2.06818
1952.39	0.80393
1952.64	1.76348
1952.89	-0.148638
1953.14	-0.140358
1953.38	-1.09122
1953.63	-3.96744
1953.88	1.79514
1954.12	1.79713
1954.37	-0.121225
1954.62	1.80196
1954.86	-1.0792
1955.11	2.76499
1955.36	-0.118504
1955.6	0.841684
1955.85	-2.04405
1956.1	-2.04854
1956.34	-0.131853
1956.59	0.825214
1956.84	0.821239
1957.08	1.77637
1957.33	0.810225
1957.58	-1.116
1957.82	1.75887
1958.07	1.75258
1958.31	0.786825
1958.56	1.74141
1958.81	-0.181288
1959.05	3.65606
1959.3	0.775702
1959.55	-2.10514
1959.79	-0.186993
1960.04	2.69118
1960.29	0.769901
1960.53	0.768335
1960.78	0.766863
1961.03	5.56662
1961.27	0.766376
1961.52	-0.194939
1961.77	1.72235
1962.01	-4.04199
1962.26	-1.16378
1962.5	-0.206211
1962.75	0.752701
1963	1.7136
1963.24	-0.205437
1963.49	3.63993
1963.74	3.64225
1963.98	0.760059
1964.23	-0.202169
1964.48	1.71754
1964.72	-2.12878
1964.97	-0.207108
1965.21	0.752419
1965.46	3.63516
1965.71	-3.09784
1965.95	-0.218504
1966.2	-0.224913
1966.44	-2.15417
1966.69	-0.241531
1966.94	2.63062
1967.18	1.66306
1967.43	0.696833
1967.68	4.53046
1967.92	-1.23336
1968.17	-0.278858
1968.41	0.675987
1968.66	0.671726
1968.91	3.54571
1969.15	-1.24997
1969.4	-2.21015
1969.64	0.666185
1969.89	0.663038
1970.14	-0.300934
1970.38	-0.307121
1970.63	1.60375
1970.87	3.51522
1971.12	-3.19979
1971.37	-1.28629
1971.61	-1.28905
1971.86	1.58447
1972.1	-1.29249
1972.35	1.58305
1972.6	0.625002
1972.84	-0.333134
1973.09	0.626001
1973.33	-4.1703
1973.58	-0.334969
1973.82	4.45946
1974.07	-2.2578
1974.32	-1.30174
1974.56	-0.346512
1974.81	-0.351442
1975.05	0.601784
1975.3	1.55489
1975.55	0.591232
1975.79	4.42091
1976.04	0.583679
1976.28	0.581678
1976.53	-6.12964
1976.77	1.53621
1977.02	-0.382198
1977.26	0.573755
1977.51	-1.34835
1977.76	-0.39604
1978	0.556833
1978.25	-2.32121
1978.49	0.547253
1978.74	3.41663
1978.98	-2.3337
1979.23	-1.37883
1979.48	1.49072
1979.72	-1.38833
1979.97	-0.436493
1980.21	3.38428
1980.46	-0.452219
1980.7	3.36865
1980.95	0.494965
1981.19	0.490984
1981.44	0.486454
1981.69	2.39473
1981.93	0.477783
1982.18	-1.44102
1982.42	-0.492319
1982.67	0.459936
1982.91	-1.45326
1983.16	1.41358
1983.4	-1.45338
1983.65	1.41577
1983.89	-2.41067
1984.14	-0.501461
1984.38	1.41023
1984.63	0.445866
1984.88	1.39303
1985.12	-0.527641
1985.37	-1.49279
1985.61	-1.50442
1985.86	-0.56756
1986.1	0.370802
1986.35	4.16731
1986.59	0.343765
1986.84	1.28778
1987.08	1.28188
1987.33	0.327991
1987.57	0.32892
1987.82	4.14577
1988.06	-0.613886
1988.31	4.15339
1988.55	1.29998
1988.8	-0.601967
1989.04	2.23664
1989.29	-1.47145
1989.53	3.11478
1989.78	1.27645
1990.02	1.22662
1990.27	-0.590536
1990.52	4.74751
1990.76	-0.475718
1991.01	1.3418
1991.25	0.547028
1991.49	0.45705
1991.74	3.63442
1991.99	-0.49839
1992.23	0.192129
1992.47	0.798012
1992.72	0.373207
1992.97	-0.0505886
1993.21	4.06745
1993.45	2.24485
1993.7	-2.17742
1993.95	0.669773
1994.19	1.92643
1994.43	-1.17927
1994.68	-0.690882
1994.93	-0.941805
1995.17	-0.846498
1995.41	1.14429
1995.66	0.197433
1995.9	-0.232983
1996.15	-1.49261
1996.39	0.724459
1996.64	1.07314
1996.88	1.32715
1997.13	1.37193
1997.37	-0.577749
1997.62	1.00338
1997.86	0.486687
1998.11	-0.645664
1998.35	1.20996
1998.6	-0.555695
1998.84	1.40788
1999.09	0.0156212
1999.33	0.643587
1999.57	0.675735
1999.82	-2.38263
2000.06	0.759445
2000.31	-0.606207
2000.55	1.27355
2000.8	1.25111
2001.04	-1.08751
2001.29	-1.22005
2001.53	1.13131
2001.78	1.12674
2002.02	1.19908
2002.27	0.387964
2002.51	0.17128
2002.75	2.3729
2003	-0.522066
2003.24	0.765181
2003.49	0.441879
2003.73	0.528814
2003.98	-1.71263
2004.22	0.205618
2004.47	0.922539
2004.71	1.3405
2004.95	0.447697
2005.2	0.369728
2005.44	-0.478003
2005.69	1.45333
2005.93	0.752285
2006.18	0.142044
2006.42	-0.934103
2006.66	-1.71261
2006.91	-0.647934
2007.15	-0.0255089
2007.4	1.25793
2007.64	0.326168
2007.89	-0.35265
2008.13	-1.99927
2008.38	-0.119982
2008.62	0.572001
2008.86	-0.536726
2009.11	-0.584328
2009.35	0.16716
2009.6	-0.845879
2009.84	-0.913872
2010.08	1.00075
2010.33	0.909626
2010.57	1.23386
2010.82	0.928717
2011.06	0.479849
2011.3	-0.301956
2011.55	-1.22823
2011.79	0.396269
2012.04	-1.15931
2012.18	-3.36583
2012.43	0.389627
2012.68	-0.546501
2012.93	0.393908
2013.17	-1.48528
2013.42	2.27041
2013.67	-0.531984
2013.91	2.29029
2014.16	3.22849
2014.41	-0.534082
2014.66	1.34028
2014.9	2.27304
2015.15	0.386976
2015.4	-2.4369
2015.64	0.370897
2015.89	0.363571
2016.14	1.29292
2016.38	-2.46322
2016.63	-0.593742
2016.88	2.21348
2017.13	-3.40898
2017.37	0.336521
2017.62	0.335068
2017.87	1.27015
2018.11	3.14341
2018.36	0.334377
2018.61	-0.602665
2018.86	-0.604008
2019.1	0.330391
2019.35	-0.609135
2019.6	1.2595
2019.84	-1.55378
2020.09	2.184
2020.34	0.307701
2020.58	0.303125
2020.83	0.298435
2021.08	3.09858
2021.32	1.22428
2021.57	-2.52001
2021.82	-2.52605
2022.06	-1.59808
2022.31	1.19659
2022.56	3.98996
2022.8	3.05029
2023.05	-2.55343
2023.3	1.1772
2023.54	1.18327
2023.79	-1.60644
2024.04	-2.52881
2024.28	0.289192
2024.53	-0.636265
2024.78	1.23366
2025.02	-1.58317
2025.27	1.20428
2025.52	2.08735
2025.76	2.12576
2026.01	-0.611496
2026.26	1.23399
2026.5	2.18485
2026.75	-2.52246
2027	-0.672789
2027.24	0.237869
2027.49	-0.695686
2027.74	-0.713005
2027.98	1.16352
2028.23	-2.55609
2028.48	-1.62619
2028.72	-1.62647
2028.97	-1.62711
2029.22	1.17713
2029.46	-0.684298
2029.71	3.99168
2029.96	-0.672722
2030.2	2.13527
2030.45	-0.665415
2030.69	1.20915
2030.94	1.21387
2031.19	1.20315
2031.43	-0.676964
2031.68	2.10275
2031.93	-0.704155
2032.17	0.236601
2032.42	-2.55852
2032.66	0.251419
2032.91	0.26494
2033.16	1.20995
2033.4	4.01758
2033.65	2.13452
2033.9	-0.67124
2034.14	-1.60149
2034.39	0.268152
2034.63	2.13705
2034.88	1.19988
2035.13	-0.672466
2035.37	-0.675287
2035.62	-0.678345
2035.87	-0.681503
2036.11	1.18383
2036.36	2.1143
2036.6	-1.62525
2036.85	2.10587
2037.1	2.09984
2037.34	2.09387
2037.59	-1.64359
2037.83	0.217531
2038.08	0.213289
2038.33	0.209696
2038.57	-0.724657
2038.82	-1.65813
2039.06	3.00003
2039.31	2.06502
2039.56	0.197321
2039.8	-0.736773
2040.05	2.98976
2040.3	-0.736071
2040.54	0.199955
2040.79	-0.72546
2041.03	0.214359
2041.28	-2.58106
2041.52	-0.715887
2041.77	0.212866
2042.02	0.204792
2042.26	2.05254
2042.51	-0.727219
2042.75	-0.717876
2043	1.17095
2043.25	-0.668327
2043.49	1.19336
2043.74	2.10741
2043.98	0.224777
2044.23	-2.5768
2044.47	0.218918
2044.72	0.205143
2044.97	0.199408
2045.21	2.064
2045.46	2.0649
2045.7	1.13374
2045.95	-1.66176
2046.19	-1.65772
2046.44	0.211309
2046.69	-0.716806
2046.93	3.95668
2047.18	-1.63951
2047.42	0.233072
2047.67	0.236248
2047.91	-1.63116
2048.16	-1.63206
2048.41	-0.701197
2048.65	1.1613
2048.9	-3.50833
2049.14	0.226858
2049.39	1.16321
2049.63	2.09822
2049.88	-0.701717
2050.12	0.235178
2050.37	3.04188
2050.62	1.17788
2050.86	0.251856
2051.11	1.1911
2051.35	-1.61236
2051.6	0.25927
2051.84	-0.676508
2052.09	0.257992
2052.33	3.06314
2052.58	0.252443
2052.82	0.250151
2053.07	0.24939
2053.31	0.247705
2053.56	-0.689154
2053.8	1.17904
2054.05	2.11352
2054.3	-0.689777
2054.54	0.246395
2054.79	1.18356
2055.03	1.18672
2055.28	0.254198
2055.52	-2.54745
2055.77	-1.60814
2056.01	-0.6686
2056.26	-0.665527
2056.5	-0.664297
2056.75	-1.59947
2056.99	-1.59859
2057.24	2.14382
2057.48	1.20511
2057.73	0.266548
2057.97	0.268744
2058.22	0.271658
2058.46	1.21004
2058.71	-0.661375
2058.95	3.08425
2059.2	-1.59646
2059.45	-0.658808
2059.69	0.279629
2059.94	0.282352
2060.18	1.2226
2060.43	1.22619
2060.67	-0.64514
2060.92	-0.642921
2061.16	0.296082
2061.4	1.23514
2061.65	0.300009
2061.9	-1.57227
2062.14	0.307146
2062.39	1.25121
2062.63	0.318537
2062.88	-0.615263
2063.12	2.20508
2063.37	0.330378
2063.61	0.331682
2063.86	1.27263
2064.1	-0.603096
2064.34	0.337957
2064.59	-1.53832
2064.83	-0.595728
2065.08	-0.592875
2065.32	2.22893
2065.57	-0.589195
2065.81	0.353466
2066.06	-0.585484
2066.3	4.11239
2066.55	3.16698
2066.79	0.340288
2067.04	-1.54178
2067.28	-0.601078
2067.53	1.28507
2067.77	0.355213
2068.02	-0.575413
2068.26	0.365833
2068.51	-0.579544
2068.75	-0.562801
2069	-0.552246
2069.24	-0.552679
2069.48	1.32952
2069.73	1.3292
2069.97	0.386513
2070.22	2.26964
2070.46	-3.37978
2070.71	-0.554432
2070.95	2.27128
2071.2	1.33121
2071.44	4.15881
2071.69	2.27952
2071.93	0.400955
2072.18	-1.47729
2072.42	0.416208
2072.66	1.36974
2072.91	-0.509888
2073.15	1.38214
2073.4	0.439421
2073.64	1.3847
2073.89	1.38337
2074.13	2.32375
2074.38	1.37612
2074.62	-1.46172
2074.87	0.422173
2075.11	-1.46171
2075.35	0.429064
2075.6	0.431347
2075.84	-1.45356
2076.09	-1.45078
2076.33	0.44076
2076.58	-2.38224
2076.82	4.23308
2077.06	2.34817
2077.31	-0.48245
2077.55	-0.479391
2077.8	0.466692
2078.04	3.3
2078.29	3.29892
2078.53	-0.480553
2078.77	0.464766
2079.02	-2.37002
2079.26	2.35601
2079.51	-0.476608
2079.75	-1.41995
2080	-1.41897
2080.24	1.41639
2080.48	0.471207
2080.73	3.30576
2080.97	0.471487
2081.22	-0.472527
2081.46	-1.41714
2081.7	2.36353
2081.95	1.41981
2082.19	0.475672
2082.44	0.476141
2082.68	-0.468082
2082.93	0.478376
2083.17	-0.461699
2083.41	2.38146
2083.66	-0.450201
2083.9	2.39017
2084.14	1.4471
2084.39	-1.38776
2084.63	1.45395
2084.88	0.508369
2085.12	0.509352
2085.36	1.45688
2085.61	3.35135
2085.85	4.2997
2086.1	-4.2176
2086.34	4.30542
2086.58	2.41623
2086.83	0.527889
2087.07	3.37262
2087.32	-0.414743
2087.56	-3.2549
2087.8	-1.35793
2088.05	-1.3554
2088.29	2.43791
2088.54	1.49309
2088.78	-1.34551
2089.02	1.50504
2089.27	1.51205
2089.51	1.51914
2089.75	-0.371826
2090	1.53303
2090.24	2.48855
2090.48	2.49462
2090.73	1.55022
2090.97	-0.345818
2091.22	-0.341658
2091.46	3.46344
2091.7	0.612061
2091.95	2.51346
2092.19	-0.339148
2092.43	0.60932
2092.68	2.50735
2092.92	0.604717
2093.17	-1.29688
2093.41	1.55261
2093.65	3.45257
2093.9	2.50266
2094.14	-1.29842
2094.38	1.54802
2094.63	-0.354128
2094.87	1.54378
2095.11	-2.25372
2095.36	2.49287
2095.6	-0.356979
2095.84	-4.15259
2096.09	-3.20294
2096.33	4.38943
2096.57	-0.355846
2096.82	0.593639
2097.06	0.594622
2097.3	-3.20013
2097.55	1.54699
2097.79	2.49862
2098.03	-1.29298
2098.28	-1.28868
2098.52	-2.23533
2098.76	-1.28352
2099.01	-0.332722
2099.25	1.56722
2099.5	-2.2309
2099.74	-1.28102
2099.98	-1.2827
2100.22	1.5629
2100.47	-0.337315
2100.71	0.61253
2100.95	3.45989
2101.2	-0.335863
2101.44	2.51435
2101.68	-1.27942
2101.93	0.623323
2102.17	-0.322901
2102.41	-0.318949
2102.66	-1.26418
2102.9	-0.309393
2103.14	1.59442
2103.39	-0.303658
2103.63	-0.301672
2103.87	1.60127
2104.12	-0.297485
2104.36	0.655195
2104.6	-1.24716
2104.85	0.651737
2105.09	0.647972
2105.33	1.59374
2105.57	1.58941
2105.82	-0.313183
2106.06	1.58509
2106.3	0.637146
2106.55	0.642433
2106.79	-1.25197
2107.03	-1.25076
2107.27	-1.24972
2107.52	-0.298752
2107.76	2.55214
2108	-1.24675
2108.25	-1.24588
2108.49	-0.295952
2108.73	-0.297293
2108.98	3.50052
2109.22	0.651308
2109.46	-1.24718
2109.7	-0.294968
2109.95	2.5575
2110.19	0.661001
2110.43	3.51687
2110.68	2.5723
2110.92	1.62505
2111.16	-0.275604
2111.4	1.62451
2111.65	-0.275679
2111.89	1.62685
2112.13	-0.272335
2112.38	-0.272099
2112.62	1.62802
2112.86	-1.22314
2113.1	1.62694
2113.35	-1.22558
2113.59	-1.22785
2113.83	-2.17821
2114.07	-0.278736
2114.32	2.57036
2114.56	0.672853
2114.8	1.62192
2115.04	-0.278866
2115.29	1.61776
2115.53	-1.23315
2115.77	2.55789
2116.01	-0.291399
2116.26	1.60251
2116.5	0.651361
2116.74	-0.299313
2116.99	0.646202
2117.23	0.644501
2117.47	-0.303085
2117.71	0.645962
2117.96	-0.297773
2118.2	3.49634
2118.44	0.657972
2118.68	0.663662
2118.92	2.56592
2119.17	1.6227
2119.41	1.62757
2119.65	1.63179
2119.9	-0.262678
2120.14	0.689808
2120.38	0.692558
2120.62	-0.254852
2120.86	1.64369
2121.11	-0.255747
2121.35	-0.257502
2121.59	-1.20962
2121.83	0.681957
2122.08	0.674101
2122.32	3.50951
2122.56	-0.28583
2122.8	1.60379
2123.04	-0.294222
2123.29	-2.19067
2123.53	1.592
2123.77	3.48106
2124.01	2.53176
2124.26	2.52837
2124.5	2.52762
2124.74	2.52767
2124.98	-0.308556
2125.22	0.635998
2125.47	-1.25471
2125.71	1.58226
2125.95	0.638311
2126.19	0.638819
2126.44	0.638479
2126.68	3.47361
2126.92	-1.2515
2127.16	-0.306126
2127.4	1.58392
2127.65	-0.306168
2127.89	5.36212
2128.13	3.47111
2128.37	-1.25364
2128.61	2.52253
2128.86	2.52072
2129.1	-0.312738
2129.34	1.57471
2129.58	0.628269
2129.82	3.45696
2130.06	0.625065
2130.31	1.56943
2130.55	0.627741
2130.79	3.46073
2131.03	-0.31258
2131.27	1.57668
2131.52	3.46623
2131.76	5.35438
2132	0.63624
2132.24	3.46799
2132.48	-1.25014
2132.73	2.52373
2132.97	2.52153
2133.21	-4.08525
2133.45	3.45438
2133.69	2.50939
2133.94	-1.25979
2134.18	3.45616
2134.42	0.62932
2134.66	2.51809
2134.9	0.637363
2135.14	0.637959
2135.39	1.57668
2135.63	2.51609
2135.87	1.57736
2136.11	2.52802
2136.35	3.47747
2136.59	0.641243
2136.84	2.51923
2137.08	-0.310091
2137.32	-3.13807
2137.56	-0.312727
2137.8	2.51229
2138.04	-0.313753
2138.28	-0.313963
2138.53	2.51263
2138.77	-0.314627
2139.01	0.62388
2139.25	-1.25942
2139.49	0.624279
2139.74	-1.25421
2139.98	0.632996
2140.22	-3.12134
2140.46	0.644516
2140.7	-0.337368
2140.94	2.47741
2141.18	0.603573
2141.43	-3.14976
2141.67	-1.26254
2141.91	0.623608
2142.15	-0.324755
2142.39	-1.26367
2142.63	-1.26147
2142.87	0.61937
2143.12	2.49934
2143.36	0.618595
2143.6	-0.321756
2143.84	-0.322001
2144.08	0.61727
2144.32	0.615889
2144.56	2.4937
2144.8	2.49231
2145.05	1.55195
2145.29	-2.20617
2145.53	2.48889
2145.77	0.609354
2146.01	3.42434
2146.25	2.48252
2146.49	0.601973
2146.73	1.5336
2146.98	1.5301
2147.22	1.52593
2147.46	4.33522
2147.7	-0.352604
2147.94	-1.28922
2148.18	-0.349474
2148.42	1.52973
2148.66	-2.21765
2148.9	0.599365
2149.15	-0.336195
2149.39	0.605886
2149.63	-1.27146
2149.87	0.602837
2150.11	2.47567
2150.35	-0.338915
2150.59	2.47264
2150.83	-2.2141
2151.07	1.53275
2151.31	4.33984
2151.56	-0.349171
2151.8	-1.29171
2152.04	1.51027
2152.28	2.43766
2152.52	2.4323
2152.76	2.42724
2153	3.35756
2153.24	2.42016
2153.48	-1.31779
2153.72	0.550869
2153.97	2.41977
2154.21	-0.381554
2154.45	1.48915
2154.69	1.49288
2154.93	0.563015
2155.17	-0.36738
2155.41	1.50397
2155.65	1.505
2155.89	-0.364077
2156.13	2.43935
2156.37	0.56896
2156.61	-1.30161
2156.86	2.43282
2157.1	-0.372847
2157.34	0.557465
2157.58	0.554455
2157.82	3.35169
2158.06	3.35023
2158.3	0.55081
2158.54	-1.31588
2158.78	2.41533
2159.02	1.48266
2159.26	1.48362
2159.5	-1.31401
2159.74	0.552633
2159.98	2.41789
2160.22	-5.97822
2160.47	-0.382847
2160.71	-0.383612
2160.95	4.27761
2161.19	-2.25011
2161.43	2.40837
2161.67	2.4039
2161.91	-0.393623
2162.15	4.26628
2162.39	-0.389332
2162.63	0.54376
2162.87	-2.25053
2163.11	0.546255
2163.35	-0.386448
2163.59	1.47594
2163.83	0.542591
2164.07	-2.25407
2164.31	1.46935
2164.55	0.535021
2164.79	1.46129
2165.03	-0.407349
2165.27	-0.414272
2165.51	2.37264
2165.76	0.513678
2166	1.44529
2166.24	-0.410913
2166.48	-2.26653
2166.72	0.529528
2166.96	-0.393816
2167.2	0.544769
2167.44	-1.31225
2167.68	1.48416
2167.92	3.34649
2168.16	0.550266
2168.4	1.48034
2168.64	-0.387289
2168.88	-1.32821
2169.12	0.525414
2169.36	1.45205
2169.6	-1.33819
2169.84	-1.33955
2170.08	-0.410152
2170.32	0.519535
2170.56	0.520161
2170.8	3.30968
2171.04	2.38397
2171.28	4.24553
2171.52	-0.399481
2171.76	-0.398333
2172	2.39065
2172.24	1.46181
2172.48	-1.32657
2172.72	-4.11464
2172.96	-1.32651
2173.2	-2.2557
2173.44	1.46047
2173.68	3.31612
2173.92	0.528769
2174.16	-0.399303
2174.4	2.38883
2174.64	2.39009
2174.88	2.39038
2175.12	0.534153
2175.36	0.533451
2175.6	-1.32803
2175.84	-1.33075
2176.08	-1.33048
2176.32	-0.400452
2176.56	1.4576
2176.8	0.530117
2177.04	0.530823
2177.28	1.45999
2177.52	0.531773
2177.76	1.45981
2178	-2.25418
2178.24	0.531185
2178.48	-0.397421
2178.72	-1.32691
2178.96	2.38411
2179.2	-2.25621
2179.44	0.526184
2179.68	-1.33053
2179.92	-0.403454
2180.16	2.37653
2180.4	0.518162
2180.64	-0.413643
2180.88	3.29076
2181.12	-2.27223
2181.35	-0.420729
2181.59	0.505619
2181.83	3.2865
2182.07	-1.34407
2182.31	-0.41538
2182.55	1.4402
2182.79	1.44318
2183.03	0.519894
2183.27	-1.33053
2183.51	0.527695
2183.75	-0.394218
2183.99	-0.3883
2184.23	2.40222
2184.47	-1.30541
2184.71	2.41392
2184.95	0.558304
2185.19	1.48579
2185.43	1.48311
2185.67	0.5516
2185.91	0.548265
2186.15	0.544485
2186.38	-1.31532
2186.62	0.534737
2186.86	-0.397171
2187.1	-0.398935
2187.34	1.45465
2187.58	-1.32529
2187.82	-0.39649
2188.06	2.38724
2188.3	-0.393806
2188.54	0.534914
2188.78	1.46424
2189.02	-1.31565
2189.26	-0.386215
2189.5	2.39836
2189.74	3.3283
2189.97	2.40439
2190.21	0.55262
2190.45	-1.30021
2190.69	-1.29612
2190.93	1.49719
2191.17	1.50715
2191.41	1.51409
2191.65	1.51812
2191.89	2.44754
2192.13	1.51593
2192.37	-4.99161
2192.61	-2.20524
2192.85	1.5083
2193.08	3.36104
2193.32	3.35418
2193.56	-0.365211
2193.8	0.558826
2194.04	1.48347
2194.28	3.33591
2194.52	-0.376942
2194.76	-0.376711
2195	1.47932
2195.24	0.553913
2195.47	2.41422
2195.71	-1.2927
2195.95	-0.359127
2196.19	-0.352837
2196.43	-1.27635
2196.67	0.587875
2196.91	1.5239
2197.15	-1.25697
2197.39	3.40506
2197.63	-0.308729
2197.86	-0.301304
2198.1	1.56767
2198.34	1.57269
2198.58	3.42921
2198.82	-3.10628
2199.06	0.579073
2199.3	0.551832
2199.54	0.561331
2199.78	-3.12446
2200.01	2.46988
2200.25	7.11423
2200.49	1.53046
2200.73	1.54213
2200.97	-2.12379
2201.21	0.653618
2201.45	1.58409
2201.69	2.52124
2201.92	-0.287922
2202.16	0.627668
2202.4	1.54354
2202.64	-0.327303
2202.88	2.45919
2203.12	-1.25941
2203.36	-0.325624
2203.59	0.605856
2203.83	-1.26069
2204.07	0.599697
2204.31	0.602499
2204.55	-1.25409
2204.79	-1.25062
2205.03	-0.316599
2205.27	2.47905
2205.5	1.55243
2205.74	0.625023
2205.98	-1.23452
2206.22	1.56098
2206.46	0.63097
2206.7	0.631172
2206.93	0.630625
2207.17	2.49382
2207.41	-0.297935
2207.65	3.43088
2207.89	-0.292685
2208.13	-1.2218
2208.37	-0.287285
2208.6	-3.08105
2208.84	-0.280775
2209.08	0.655661
2209.32	0.658339
2209.56	0.65988
2209.8	3.457
2210.03	0.656683
2210.27	1.58739
2210.51	1.58446
2210.75	2.51298
2210.99	-0.283298
2211.23	0.652485
2211.47	-0.273306
2211.7	4.40032
2211.94	2.53576
2212.18	-3.99719
2212.42	1.60501
2212.66	0.672121
2212.89	0.67243
2213.13	-1.19498
2213.37	-0.26174
2213.61	-3.06333
2213.85	0.670206
2214.09	-1.19791
2214.32	2.53606
2214.56	-0.264257
2214.8	-1.19733
2215.04	0.669744
2215.28	1.60287
2215.51	-3.06508
2215.75	1.60501
2215.99	0.673479
2216.23	0.676418
2216.47	-0.254713
2216.71	0.681419
2216.94	2.55234
2217.18	1.61957
2217.42	1.6189
2217.66	-2.12061
2217.9	2.55119
2218.13	0.679987
2218.37	-0.258852
2218.61	2.53802
2218.85	-1.202
2219.08	0.661661
2219.32	-1.20812
2219.56	-1.20909
2219.8	-0.274866
2220.04	1.59452
2220.27	0.663162
2220.51	-0.268171
2220.75	1.60388
2220.99	-0.259907
2221.23	1.61458
2221.46	1.61969
2221.7	1.62407
2221.94	-0.243134
2222.18	0.695871
2222.42	0.699902
2222.65	-0.231632
2222.89	-1.16461
2223.13	-2.09835
2223.37	-1.15864
2223.6	1.65452
2223.84	3.53247
2224.08	1.6613
2224.32	4.47663
2224.55	-0.209696
2224.79	-1.14683
2225.03	-0.210005
2225.27	3.53886
2225.5	-0.213808
2225.74	0.721935
2225.98	0.720318
2226.22	1.65617
2226.46	-1.15698
2226.69	-2.09263
2226.93	-0.213482
2227.17	1.66637
2227.41	3.54582
2227.64	-1.1432
2227.88	0.736843
2228.12	-1.13768
2228.36	-0.195423
2228.59	-1.13123
2228.83	3.56901
2229.07	-3.00562
2229.31	-0.183697
2229.54	-1.12111
2229.78	0.761818
2230.02	0.76457
2230.26	-0.173517
2230.49	-0.171091
2230.73	-2.05064
2230.97	0.774319
2231.21	-1.10693
2231.44	-1.10853
2231.68	0.771654
2231.92	0.768639
2232.16	0.764532
2232.39	0.757282
2232.63	0.751596
2232.87	0.750912
2233.11	-0.189581
2233.34	0.750957
2233.58	1.69165
2233.82	1.69156
2234.05	0.751078
2234.29	-1.12729
2234.53	0.757431
2234.77	-1.11933
2235	0.770245
2235.24	0.776407
2235.48	-1.10424
2235.72	-2.04354
2235.95	-0.153734
2236.19	0.794966
2236.43	1.73901
2236.66	-0.150316
2236.9	-0.153719
2237.14	0.783569
2237.37	0.777853
2237.61	0.774645
2237.85	-0.162245
2238.09	-0.15604
2238.32	3.61804
2238.56	-0.155859
2238.8	-0.15556
2239.04	-1.09919
2239.27	1.73253
2239.51	0.78969
2239.75	-1.09717
2239.98	0.790329
2240.22	0.78849
2240.46	0.785042
2240.69	1.72484
2240.93	-0.165262
2241.17	-1.11062
2241.4	-0.167561
2241.64	-0.166122
2241.88	-1.10635
2242.11	-1.10084
2242.35	-2.04075
2242.59	0.797239
2242.83	-0.145634
2243.06	0.802401
2243.3	0.805017
2243.54	-2.97661
2243.77	-2.03034
2244.01	0.809216
2244.25	-1.08178
2244.48	-1.08129
2244.72	0.811165
2244.96	-1.08322
2245.19	2.70032
2245.43	1.75145
2245.67	1.74895
2245.91	-0.145948
2246.14	2.69041
2246.38	3.63445
2246.61	3.63667
2246.85	-2.0407
2247.09	-1.09568
2247.32	1.74004
2247.56	-2.0498
2247.8	-0.162399
2248.03	-1.11373
2248.27	-0.172607
2248.51	-2.06746
2248.74	3.60276
2248.98	0.765747
2249.22	-0.179214
2249.45	-1.12362
2249.69	-1.12169
2249.93	0.77459
2250.16	-0.163675
2250.4	-1.10527
2250.64	1.74049
2250.87	-0.15155
2251.11	2.69382
2251.35	-3.93983
2251.58	-1.09492
2251.82	1.74857
2252.06	-0.15093
2252.29	-0.151665
2252.53	0.795191
2252.77	-1.10206
2253	-0.154589
2253.24	1.74367
2253.48	-0.151329
2253.71	0.799036
2253.95	-1.09735
2254.18	2.70039
2254.42	0.803669
2254.66	0.805042
2254.89	-0.143948
2255.13	2.70436
2255.37	2.70372
2255.6	-2.04509
2255.84	-1.09535
2256.08	0.805351
2256.31	-3.94398
2256.55	-1.09357
2256.78	-2.99438
2257.02	-0.143036
2257.26	-0.142761
2257.49	2.70926
2257.73	1.75889
2257.96	-0.141485
2258.2	0.813646
2258.44	-1.08675
2258.67	-1.0875
2258.91	1.7664
2259.15	-0.136801
2259.38	-0.136932
2259.62	0.815722
2259.85	-2.99017
2260.09	-1.08404
2260.33	0.823771
2260.56	-2.03062
2260.8	4.64535
2261.03	-1.06869
2261.27	-2.01792
2261.51	-0.105587
2261.74	1.80701
2261.98	0.855316
2262.21	0.857519
2262.45	-2.00636
2262.69	0.858166
2262.92	-1.05331
2263.16	-0.10111
2263.39	-2.01669
2263.63	0.842161
2263.87	1.79032
2264.1	3.69286
2264.34	0.825001
2264.57	-0.13361
2264.81	-0.138157
2265.05	1.76352
2265.28	0.804853
2265.52	-1.10508
2265.75	1.75417
2265.99	-0.152206
2266.22	0.803617
2266.46	-0.147295
2266.7	-2.05286
2266.93	-1.09521
2267.17	1.77395
2267.4	-1.08758
2267.64	1.78051
2267.87	1.78117
2268.11	0.827806
2268.35	0.829399
2268.58	-2.0386
2268.82	-1.08188
2269.05	0.832611
2269.29	2.74607
2269.53	-1.08199
2269.76	1.78713
2270	0.829584
2270.23	0.828861
2270.47	-0.128864
2270.7	-0.12973
2270.94	-0.130598
2271.18	0.825562
2271.41	-2.04681
2271.65	-0.133453
2271.88	1.78018
2272.12	-0.134897
2272.35	-0.135752
2272.59	-0.136404
2272.82	0.818525
2273.06	0.819397
2273.3	-1.09356
2273.53	0.824871
2273.77	-2.04764
2274	1.78764
2274.24	-2.04463
2274.47	-2.04128
2274.71	-1.07781
2274.94	-0.113255
2275.18	-1.06756
2275.41	-0.106493
2275.65	1.81389
2275.88	0.85183
2276.12	-1.07162
2276.36	-0.11418
2276.59	0.841043
2276.83	0.830618
2277.06	-1.09579
2277.3	0.816225
2277.53	-1.10813
2277.77	0.804354
2278	0.799736
2278.24	-0.162609
2278.47	0.791723
2278.71	-2.0873
2278.94	0.7882
2279.18	-2.08818
2279.41	1.74723
2279.65	-0.168608
2279.89	0.792881
2280.12	1.75475
2280.36	0.798855
2280.59	-0.155708
2280.83	0.811348
2281.06	0.817482
2281.3	-0.136889
2281.53	-0.133856
2281.77	0.828167
2282	0.830664
2282.24	-2.05369
2282.47	2.75744
2282.71	-0.130877
2282.94	-0.136471
2283.18	0.816538
2283.41	-0.147751
2283.65	1.77549
2283.88	0.814768
2284.12	-0.140722
2284.35	-1.09838
2284.59	0.828465
2284.82	0.828634
2285.06	2.75899
2285.29	0.828922
2285.53	-0.138992
2285.76	0.819584
2286	1.77734
2286.23	-1.11848
2286.47	2.72245
2286.7	2.7136
2286.94	-3.06638
2287.17	-2.10892
2287.41	-1.15106
2287.64	-0.191463
2287.88	-2.11566
2288.11	-0.192106
2288.35	0.772604
2288.58	-3.07127
2288.82	-1.14496
2289.05	1.74376
2289.28	-2.1053
2289.52	-0.178253
2289.75	1.7505
2289.99	2.71654
2290.22	-1.13558
2290.46	0.792566
2290.69	2.72053
2290.93	0.792385
2291.16	-0.174541
2291.4	1.74894
2291.63	1.74419
2291.87	-0.188036
2292.1	-1.15553
2292.34	0.766581
2292.57	3.65109
2292.81	1.72071
2293.04	6.53029
2293.28	-1.17715
2293.51	1.70052
2293.74	0.73564
2293.98	2.65985
2294.21	4.58576
2294.45	0.73847
2294.68	2.66651
2294.92	-0.218187
2295.15	-2.14028
2295.39	-1.1748
2295.62	1.7171
2295.86	-1.1722
2296.09	-0.205273
2296.32	-3.09602
2296.56	0.763247
2296.79	-2.13033
2297.03	0.76177
2297.26	-2.1336
2297.5	-2.13557
2297.73	-0.205751
2297.97	2.69064
2298.2	-2.13344
2298.43	0.762403
2298.67	0.762249
2298.9	1.72648
2299.14	-2.13659
2299.37	1.72117
2299.61	-2.14209
2299.84	1.71742
2300.07	0.750439
2300.31	1.71304
2300.54	1.71132
2300.78	-0.219877
2301.01	-1.18469
2301.25	-0.217775
2301.48	0.749275
2301.71	2.68136
2301.95	0.751478
2302.18	-3.11016
2302.42	1.72076
2302.65	-0.211828
2302.89	-1.17787
2303.12	1.72214
2303.35	-0.209616
2303.59	-1.17661
2303.82	1.72223
2304.05	0.754181
2304.29	-0.21417
2304.52	1.7159
2304.76	-0.220476
2304.99	-0.223
2305.23	-3.12438
2305.46	-0.228479
2305.69	-0.229633
2305.93	0.736233
2306.16	0.738007
2306.4	0.74017
2306.63	1.71059
2306.86	-0.218195
2307.1	-2.14989
2307.33	1.72014
2307.57	-1.1825
2307.8	1.71818
2308.03	-0.219461
2308.27	0.742476
2308.5	1.69726
2308.74	-1.2143
2308.97	-0.255686
2309.2	-2.1918
2309.44	-1.22985
2309.67	-1.23373
2309.91	0.692947
2310.14	0.691851
2310.37	3.58827
2310.61	-0.267025
2310.84	1.6706
2311.07	-2.18816
2311.31	-6.04925
2311.54	-0.24679
2311.78	-0.240704
2312.01	3.63388
2312.24	2.66957
2312.48	-1.20544
2312.71	2.65755
2312.94	-1.21439
2313.18	-1.21957
2313.41	2.63453
2313.65	0.696583
2313.88	2.62455
2314.11	-2.20427
2314.35	-0.27264
2314.58	2.625
2314.81	1.66422
2315.05	-1.23102
2315.28	-2.20302
2315.51	0.690884
2315.75	-1.24305
2315.98	-0.280695
2316.22	1.64642
2316.45	1.64319
2316.68	-0.289223
2316.92	2.60397
2317.15	1.63893
2317.38	-1.25557
2317.62	-2.22082
2317.85	-1.25437
2318.08	1.64369
2318.32	-1.24918
2318.55	1.65062
2318.78	-0.276625
2319.02	-0.271513
2319.25	4.56599
2319.48	-0.261126
2319.72	2.64097
2319.95	-3.16007
2320.19	2.64119
2320.42	-2.19122
2320.65	1.67744
2320.89	1.67904
2321.12	0.712885
2321.35	2.64622
2321.58	-2.18907
2321.82	2.6407
2322.05	-0.264629
2322.28	-0.270737
2322.52	0.691235
2322.75	3.5848
2322.98	0.684572
2323.22	-1.24938
2323.45	-0.287542
2323.68	0.673887
2323.92	-0.294317
2324.15	0.666735
2324.38	-2.22953
2324.62	2.58902
2324.85	1.62227
2325.08	2.5845
2325.32	5.4778
2325.55	4.51489
2325.78	2.58849
2326.02	2.58509
2326.25	6.43595
2326.48	4.50369
2326.71	5.46567
2326.95	9.3181
2327.18	12.2126
2327.41	18.9538
2327.65	25.6937
2327.88	22.8017
2328.11	18.9494
2328.35	13.1748
2328.58	10.291
2328.81	3.55328
2329.05	5.48715
2329.28	6.44516
2329.51	1.62574
2329.75	5.47637
2329.98	3.54868
2330.21	5.47278
2330.44	-0.304756
2330.68	3.54501
2330.91	1.61955
2331.14	1.61835
2331.38	-1.26994
2331.61	-1.27274
2331.84	-0.311817
2332.07	1.61145
2332.31	0.650866
2332.54	-0.310022
2332.77	-2.23079
2333	-0.304346
2333.24	-1.26472
2333.47	-0.302973
2333.7	0.659426
2333.94	2.58365
2334.17	0.661983
2334.4	0.663145
2334.63	2.5873
2334.87	0.66511
2335.1	-0.295218
2335.33	-0.293741
2335.56	-0.292307
2335.8	0.670673
2336.03	-7.97685
2336.26	1.63794
2336.5	0.679153
2336.73	0.681087
2336.96	-0.278982
2337.19	1.64341
2337.43	-1.23979
2337.66	2.60271
2337.89	1.64036
2338.12	-0.282772
2338.36	-0.285709
2338.59	0.669872
2338.82	0.667406
2339.05	1.62606
2339.29	2.58468
2339.52	0.667072
2339.75	-0.290575
2339.98	-3.1643
2340.22	-0.285583
2340.45	-0.28211
2340.68	-1.23823
2340.91	-0.277016
2341.15	1.64378
2341.38	0.68998
2341.61	-0.264496
2341.84	-0.261448
2342.08	1.65816
2342.31	0.701241
2342.54	-0.256437
2342.77	-0.257362
2343.01	-4.08841
2343.24	0.701399
2343.47	-0.25366
2343.7	1.66454
2343.93	3.5827
2344.17	-0.245054
2344.4	5.50215
2344.63	-2.15325
2344.86	2.63843
2345.1	-0.228394
2345.33	0.735746
2345.56	0.741634
2345.79	1.70369
2346.03	-2.12404
2346.26	2.66504
2346.49	0.746717
2346.72	0.743362
2346.95	0.738613
2347.19	0.732199
2347.42	0.723322
2347.65	-0.249956
2347.88	1.62024
2348.12	0.704521
2348.35	-0.182198
2348.58	1.75555
2348.81	0.764017
2349.04	-3.06878
2349.28	1.7105
2349.51	-0.190834
2349.74	-2.1045
2349.97	-1.1604
2350.2	1.69062
2350.44	-2.10919
2350.67	-1.15237
2350.9	-0.197414
2351.13	-2.09622
2351.36	2.67119
2351.6	0.777111
2351.83	-3.02421
2352.06	-2.06571
2352.29	2.70347
2352.52	1.75512
2352.76	0.806889
2352.99	0.811003
2353.22	-1.09064
2353.45	-0.13756
2353.68	1.76375
2353.92	1.76301
2354.15	2.71675
2354.38	0.818125
2354.61	3.67412
2354.84	0.825972
2355.07	-0.120192
2355.31	-1.06543
2355.54	-0.109425
2355.77	-1.05619
2356	0.849379
2356.23	0.855402
2356.46	-0.0882874
2356.7	-1.03279
2356.93	-4.82672
2357.16	0.874592
2357.39	-1.02051
2357.62	-1.96566
2357.86	1.83357
2358.09	-0.0603046
2358.32	1.83996
2358.55	-3.84541
2358.78	0.898415
2359.01	1.84927
2359.25	-0.0426235
2359.48	2.80227
2359.71	0.912281
2359.94	-0.976334
2360.17	0.922207
2360.4	-0.0183754
2360.63	-2.85059
2360.87	-1.89727
2361.1	0.00174522
2361.33	2.84591
2361.56	0.0144749
2361.79	0.0210114
2362.02	3.81045
2362.26	0.979616
2362.49	3.82061
2362.72	1.93053
2362.95	0.984013
2363.18	1.92861
2363.41	-1.8386
2363.64	1.94463
2363.88	-0.874996
2364.11	-0.857752
2364.34	-1.78241
2364.57	1.06986
2364.8	0.133339
